Delta_TP9,Delta_AF7,Delta_AF8,Delta_TP10,Theta_TP9,Theta_AF7,Theta_AF8,Theta_TP10,Alpha_TP9,Alpha_AF7,Alpha_AF8,Alpha_TP10,Beta_TP9,Beta_AF7,Beta_AF8,Beta_TP10,Gamma_TP9,Gamma_AF7,Gamma_AF8,Gamma_TP10,RAW_TP9,RAW_AF7,RAW_AF8,RAW_TP10,AUX_RIGHT,AUX_LEFT,Accelerometer_X,Accelerometer_Y,Accelerometer_Z,Gyro_X,Gyro_Y,Gyro_Z,HeadBandOn,HSI_TP9,HSI_AF7,HSI_AF8,HSI_TP10,Battery,Elements,time
0.4755145564190874,0.1073331887236251,-0.0782249936883028,1.050995856990312,0.2603176736998131,0.1000801696437038,-0.0933382892043608,0.3094698674931808,1.064607403385884,0.5612156728445158,0.4704675540329499,0.8200961984372835,0.774892674347196,-0.0736850437623237,-0.0478630459142193,0.750521204953936,0.7179737437225111,0.0416134429890301,-0.3963710125671817,0.6229277868280049,796.996336996337,798.2051282051282,797.3992673992674,786.9230769230769,824.7985347985348,811.9047619047619,0.043152,0.22229,0.976562,2.714081,-0.411224,2.34024,1.0,1.0,1.0,1.0,1.0,45.0,,1649753752.993
0.4755145564190874,0.1073331887236251,-0.0782249936883028,1.050995856990312,0.2603176736998131,0.1000801696437038,-0.0933382892043608,0.3094698674931808,1.064607403385884,0.5612156728445158,0.4704675540329499,0.8200961984372835,0.774892674347196,-0.0736850437623237,-0.0478630459142193,0.750521204953936,0.7179737437225111,0.0416134429890301,-0.3963710125671817,0.6229277868280049,795.3846153846154,799.0109890109891,793.7728937728938,775.2380952380953,889.2673992673992,757.5091575091575,0.043152,0.22229,0.976562,2.714081,-0.411224,2.34024,1.0,1.0,1.0,1.0,1.0,45.0,,1649753752.994
0.4755145564190874,0.1073331887236251,-0.0782249936883028,1.050995856990312,0.2603176736998131,0.1000801696437038,-0.0933382892043608,0.3094698674931808,1.064607403385884,0.5612156728445158,0.4704675540329499,0.8200961984372835,0.774892674347196,-0.0736850437623237,-0.0478630459142193,0.750521204953936,0.7179737437225111,0.0416134429890301,-0.3963710125671817,0.6229277868280049,806.2637362637363,795.3846153846154,791.7582417582418,781.6849816849817,876.7765567765568,671.6849816849817,0.043152,0.22229,0.976562,2.714081,-0.411224,2.34024,1.0,1.0,1.0,1.0,1.0,45.0,,1649753752.994
0.4755145564190874,0.1073331887236251,-0.0782249936883028,1.050995856990312,0.2603176736998131,0.1000801696437038,-0.0933382892043608,0.3094698674931808,1.064607403385884,0.5612156728445158,0.4704675540329499,0.8200961984372835,0.774892674347196,-0.0736850437623237,-0.0478630459142193,0.750521204953936,0.7179737437225111,0.0416134429890301,-0.3963710125671817,0.6229277868280049,803.8461538461539,792.967032967033,793.7728937728938,791.7582417582418,840.1098901098901,695.054945054945,0.043152,0.22229,0.976562,2.714081,-0.411224,2.34024,1.0,1.0,1.0,1.0,1.0,45.0,,1649753752.995
0.4755145564190874,0.1073331887236251,-0.0782249936883028,1.050995856990312,0.2603176736998131,0.1000801696437038,-0.0933382892043608,0.3094698674931808,1.064607403385884,0.5612156728445158,0.4704675540329499,0.8200961984372835,0.774892674347196,-0.0736850437623237,-0.0478630459142193,0.750521204953936,0.7179737437225111,0.0416134429890301,-0.3963710125671817,0.6229277868280049,787.3260073260074,791.3553113553114,788.5347985347986,788.9377289377289,809.0842490842491,747.032967032967,0.043152,0.22229,0.976562,2.714081,-0.411224,2.34024,1.0,1.0,1.0,1.0,1.0,45.0,,1649753752.995
0.4755145564190874,0.1073331887236251,-0.0782249936883028,1.050995856990312,0.2603176736998131,0.1000801696437038,-0.0933382892043608,0.3094698674931808,1.064607403385884,0.5612156728445158,0.4704675540329499,0.8200961984372835,0.774892674347196,-0.0736850437623237,-0.0478630459142193,0.750521204953936,0.7179737437225111,0.0416134429890301,-0.3963710125671817,0.6229277868280049,772.8205128205128,795.7875457875458,784.9084249084249,770.4029304029305,738.5714285714286,945.6776556776556,0.043152,0.22229,0.976562,2.714081,-0.411224,2.34024,1.0,1.0,1.0,1.0,1.0,45.0,,1649753752.996
0.4755145564190874,0.1073331887236251,-0.0782249936883028,1.050995856990312,0.2603176736998131,0.1000801696437038,-0.0933382892043608,0.3094698674931808,1.064607403385884,0.5612156728445158,0.4704675540329499,0.8200961984372835,0.774892674347196,-0.0736850437623237,-0.0478630459142193,0.750521204953936,0.7179737437225111,0.0416134429890301,-0.3963710125671817,0.6229277868280049,782.4908424908425,796.996336996337,785.3113553113553,772.014652014652,567.3260073260074,859.047619047619,0.043152,0.22229,0.976562,2.714081,-0.411224,2.34024,1.0,1.0,1.0,1.0,1.0,45.0,,1649753752.996
0.4755145564190874,0.1073331887236251,-0.0782249936883028,1.050995856990312,0.2603176736998131,0.1000801696437038,-0.0933382892043608,0.3094698674931808,1.064607403385884,0.5612156728445158,0.4704675540329499,0.8200961984372835,0.774892674347196,-0.0736850437623237,-0.0478630459142193,0.750521204953936,0.7179737437225111,0.0416134429890301,-0.3963710125671817,0.6229277868280049,792.5641025641025,793.7728937728938,784.1025641025641,780.8791208791209,670.4761904761905,680.1465201465202,0.043152,0.22229,0.976562,2.714081,-0.411224,2.34024,1.0,1.0,1.0,1.0,1.0,45.0,,1649753752.997
0.4755145564190874,0.1073331887236251,-0.0782249936883028,1.050995856990312,0.2603176736998131,0.1000801696437038,-0.0933382892043608,0.3094698674931808,1.064607403385884,0.5612156728445158,0.4704675540329499,0.8200961984372835,0.774892674347196,-0.0736850437623237,-0.0478630459142193,0.750521204953936,0.7179737437225111,0.0416134429890301,-0.3963710125671817,0.6229277868280049,799.8168498168499,793.7728937728938,788.1318681318681,786.5201465201466,819.96336996337,898.1318681318681,0.043152,0.22229,0.976562,2.714081,-0.411224,2.34024,1.0,1.0,1.0,1.0,1.0,45.0,,1649753752.997
0.4755145564190874,0.1073331887236251,-0.0782249936883028,1.050995856990312,0.2603176736998131,0.1000801696437038,-0.0933382892043608,0.3094698674931808,1.064607403385884,0.5612156728445158,0.4704675540329499,0.8200961984372835,0.774892674347196,-0.0736850437623237,-0.0478630459142193,0.750521204953936,0.7179737437225111,0.0416134429890301,-0.3963710125671817,0.6229277868280049,808.2783882783883,799.4139194139194,792.5641025641025,783.2967032967033,838.0952380952381,867.5091575091575,0.043152,0.22229,0.976562,2.714081,-0.411224,2.34024,1.0,1.0,1.0,1.0,1.0,45.0,,1649753752.998
0.4755145564190874,0.1073331887236251,-0.0782249936883028,1.050995856990312,0.2603176736998131,0.1000801696437038,-0.0933382892043608,0.3094698674931808,1.064607403385884,0.5612156728445158,0.4704675540329499,0.8200961984372835,0.774892674347196,-0.0736850437623237,-0.0478630459142193,0.750521204953936,0.7179737437225111,0.0416134429890301,-0.3963710125671817,0.6229277868280049,803.8461538461539,803.8461538461539,790.952380952381,780.0732600732601,835.6776556776557,791.7582417582418,0.043152,0.22229,0.976562,2.714081,-0.411224,2.34024,1.0,1.0,1.0,1.0,1.0,45.0,,1649753752.998
0.4755145564190874,0.1073331887236251,-0.0782249936883028,1.050995856990312,0.2603176736998131,0.1000801696437038,-0.0933382892043608,0.3094698674931808,1.064607403385884,0.5612156728445158,0.4704675540329499,0.8200961984372835,0.774892674347196,-0.0736850437623237,-0.0478630459142193,0.750521204953936,0.7179737437225111,0.0416134429890301,-0.3963710125671817,0.6229277868280049,790.1465201465202,803.040293040293,785.7142857142858,787.7289377289378,809.8901098901099,1003.296703296703,0.043152,0.22229,0.976562,2.714081,-0.411224,2.34024,1.0,1.0,1.0,1.0,1.0,45.0,,1649753752.998
0.4755145564190874,0.1073331887236251,-0.0782249936883028,1.050995856990312,0.2603176736998131,0.1000801696437038,-0.0933382892043608,0.3094698674931808,1.064607403385884,0.5612156728445158,0.4704675540329499,0.8200961984372835,0.774892674347196,-0.0736850437623237,-0.0478630459142193,0.750521204953936,0.7179737437225111,0.0416134429890301,-0.3963710125671817,0.6229277868280049,772.014652014652,798.2051282051282,784.5054945054945,777.6556776556777,840.1098901098901,827.6190476190476,0.046143,0.215088,0.975525,2.280426,-1.24115,3.04306,1.0,1.0,1.0,1.0,1.0,45.0,,1649753753.041
0.4755145564190874,0.1073331887236251,-0.0782249936883028,1.050995856990312,0.2603176736998131,0.1000801696437038,-0.0933382892043608,0.3094698674931808,1.064607403385884,0.5612156728445158,0.4704675540329499,0.8200961984372835,0.774892674347196,-0.0736850437623237,-0.0478630459142193,0.750521204953936,0.7179737437225111,0.0416134429890301,-0.3963710125671817,0.6229277868280049,771.6117216117216,787.7289377289378,784.1025641025641,772.4175824175825,753.4798534798535,592.3076923076924,0.046143,0.215088,0.975525,2.280426,-1.24115,3.04306,1.0,1.0,1.0,1.0,1.0,45.0,,1649753753.042
0.4755145564190874,0.1073331887236251,-0.0782249936883028,1.050995856990312,0.2603176736998131,0.1000801696437038,-0.0933382892043608,0.3094698674931808,1.064607403385884,0.5612156728445158,0.4704675540329499,0.8200961984372835,0.774892674347196,-0.0736850437623237,-0.0478630459142193,0.750521204953936,0.7179737437225111,0.0416134429890301,-0.3963710125671817,0.6229277868280049,791.7582417582418,789.7435897435897,786.5201465201466,767.5824175824176,780.8791208791209,599.5604395604396,0.046143,0.215088,0.975525,2.280426,-1.24115,3.04306,1.0,1.0,1.0,1.0,1.0,45.0,,1649753753.043
0.4755145564190874,0.1073331887236251,-0.0782249936883028,1.050995856990312,0.2603176736998131,0.1000801696437038,-0.0933382892043608,0.3094698674931808,1.064607403385884,0.5612156728445158,0.4704675540329499,0.8200961984372835,0.774892674347196,-0.0736850437623237,-0.0478630459142193,0.750521204953936,0.7179737437225111,0.0416134429890301,-0.3963710125671817,0.6229277868280049,790.952380952381,797.8021978021978,793.3699633699634,782.893772893773,871.1355311355312,815.1282051282052,0.046143,0.215088,0.975525,2.280426,-1.24115,3.04306,1.0,1.0,1.0,1.0,1.0,45.0,,1649753753.043
0.4755145564190874,0.1073331887236251,-0.0782249936883028,1.050995856990312,0.2603176736998131,0.1000801696437038,-0.0933382892043608,0.3094698674931808,1.064607403385884,0.5612156728445158,0.4704675540329499,0.8200961984372835,0.774892674347196,-0.0736850437623237,-0.0478630459142193,0.750521204953936,0.7179737437225111,0.0416134429890301,-0.3963710125671817,0.6229277868280049,780.4761904761905,793.3699633699634,793.3699633699634,790.952380952381,842.1245421245421,796.5934065934066,0.046143,0.215088,0.975525,2.280426,-1.24115,3.04306,1.0,1.0,1.0,1.0,1.0,45.0,,1649753753.043
0.4986007349165369,0.1233779772133301,-0.1657858144250594,0.9941998180786276,0.2776794970785,0.1266512170434471,-0.1360475243842802,0.267852516407181,1.067347051759995,0.558319952468036,0.4704675540329499,0.8614626497620005,0.7399418192844098,-0.0591345985411013,-0.0572033641529874,0.7822048338435114,0.7256231199059351,0.0276344648813323,-0.3914154030199979,0.6524807677217571,790.5494505494506,789.7435897435897,791.3553113553114,771.2087912087912,788.5347985347986,919.0842490842492,0.046143,0.215088,0.975525,2.280426,-1.24115,3.04306,1.0,1.0,1.0,1.0,1.0,45.0,,1649753753.044
0.4986007349165369,0.1233779772133301,-0.1657858144250594,0.9941998180786276,0.2776794970785,0.1266512170434471,-0.1360475243842802,0.267852516407181,1.067347051759995,0.558319952468036,0.4704675540329499,0.8614626497620005,0.7399418192844098,-0.0591345985411013,-0.0572033641529874,0.7822048338435114,0.7256231199059351,0.0276344648813323,-0.3914154030199979,0.6524807677217571,788.1318681318681,792.967032967033,791.7582417582418,760.7326007326008,722.0512820512821,931.5750915750916,0.046143,0.215088,0.975525,2.280426,-1.24115,3.04306,1.0,1.0,1.0,1.0,1.0,45.0,,1649753753.045
0.4986007349165369,0.1233779772133301,-0.1657858144250594,0.9941998180786276,0.2776794970785,0.1266512170434471,-0.1360475243842802,0.267852516407181,1.067347051759995,0.558319952468036,0.4704675540329499,0.8614626497620005,0.7399418192844098,-0.0591345985411013,-0.0572033641529874,0.7822048338435114,0.7256231199059351,0.0276344648813323,-0.3914154030199979,0.6524807677217571,778.8644688644689,793.3699633699634,788.1318681318681,778.4615384615385,759.5238095238095,765.1648351648352,0.046143,0.215088,0.975525,2.280426,-1.24115,3.04306,1.0,1.0,1.0,1.0,1.0,45.0,,1649753753.045
0.4986007349165369,0.1233779772133301,-0.1657858144250594,0.9941998180786276,0.2776794970785,0.1266512170434471,-0.1360475243842802,0.267852516407181,1.067347051759995,0.558319952468036,0.4704675540329499,0.8614626497620005,0.7399418192844098,-0.0591345985411013,-0.0572033641529874,0.7822048338435114,0.7256231199059351,0.0276344648813323,-0.3914154030199979,0.6524807677217571,792.967032967033,797.3992673992674,792.1611721611722,808.6813186813187,803.4432234432235,726.4835164835165,0.046143,0.215088,0.975525,2.280426,-1.24115,3.04306,1.0,1.0,1.0,1.0,1.0,45.0,,1649753753.046
0.4986007349165369,0.1233779772133301,-0.1657858144250594,0.9941998180786276,0.2776794970785,0.1266512170434471,-0.1360475243842802,0.267852516407181,1.067347051759995,0.558319952468036,0.4704675540329499,0.8614626497620005,0.7399418192844098,-0.0591345985411013,-0.0572033641529874,0.7822048338435114,0.7256231199059351,0.0276344648813323,-0.3914154030199979,0.6524807677217571,799.0109890109891,797.8021978021978,798.2051282051282,805.4578754578755,795.7875457875458,651.1355311355312,0.046143,0.215088,0.975525,2.280426,-1.24115,3.04306,1.0,1.0,1.0,1.0,1.0,45.0,,1649753753.046
0.4986007349165369,0.1233779772133301,-0.1657858144250594,0.9941998180786276,0.2776794970785,0.1266512170434471,-0.1360475243842802,0.267852516407181,1.067347051759995,0.558319952468036,0.4704675540329499,0.8614626497620005,0.7399418192844098,-0.0591345985411013,-0.0572033641529874,0.7822048338435114,0.7256231199059351,0.0276344648813323,-0.3914154030199979,0.6524807677217571,788.9377289377289,796.5934065934066,792.967032967033,773.2234432234433,818.7545787545788,598.3516483516484,0.046143,0.215088,0.975525,2.280426,-1.24115,3.04306,1.0,1.0,1.0,1.0,1.0,45.0,,1649753753.046
0.4986007349165369,0.1233779772133301,-0.1657858144250594,0.9941998180786276,0.2776794970785,0.1266512170434471,-0.1360475243842802,0.267852516407181,1.067347051759995,0.558319952468036,0.4704675540329499,0.8614626497620005,0.7399418192844098,-0.0591345985411013,-0.0572033641529874,0.7822048338435114,0.7256231199059351,0.0276344648813323,-0.3914154030199979,0.6524807677217571,775.6410256410256,794.981684981685,788.9377289377289,765.9706959706959,821.978021978022,816.7399267399268,0.046143,0.215088,0.975525,2.280426,-1.24115,3.04306,1.0,1.0,1.0,1.0,1.0,45.0,,1649753753.047
0.4986007349165369,0.1233779772133301,-0.1657858144250594,0.9941998180786276,0.2776794970785,0.1266512170434471,-0.1360475243842802,0.267852516407181,1.067347051759995,0.558319952468036,0.4704675540329499,0.8614626497620005,0.7399418192844098,-0.0591345985411013,-0.0572033641529874,0.7822048338435114,0.7256231199059351,0.0276344648813323,-0.3914154030199979,0.6524807677217571,786.5201465201466,792.5641025641025,790.1465201465202,770.4029304029305,799.8168498168499,772.8205128205128,0.057861,0.225342,0.979431,2.205658,-0.545807,4.63562,1.0,1.0,1.0,1.0,1.0,45.0,,1649753753.091
0.4986007349165369,0.1233779772133301,-0.1657858144250594,0.9941998180786276,0.2776794970785,0.1266512170434471,-0.1360475243842802,0.267852516407181,1.067347051759995,0.558319952468036,0.4704675540329499,0.8614626497620005,0.7399418192844098,-0.0591345985411013,-0.0572033641529874,0.7822048338435114,0.7256231199059351,0.0276344648813323,-0.3914154030199979,0.6524807677217571,786.9230769230769,790.952380952381,788.9377289377289,774.0293040293041,699.4871794871796,577.8021978021978,0.057861,0.225342,0.979431,2.205658,-0.545807,4.63562,1.0,1.0,1.0,1.0,1.0,45.0,,1649753753.091
0.4986007349165369,0.1233779772133301,-0.1657858144250594,0.9941998180786276,0.2776794970785,0.1266512170434471,-0.1360475243842802,0.267852516407181,1.067347051759995,0.558319952468036,0.4704675540329499,0.8614626497620005,0.7399418192844098,-0.0591345985411013,-0.0572033641529874,0.7822048338435114,0.7256231199059351,0.0276344648813323,-0.3914154030199979,0.6524807677217571,772.014652014652,787.3260073260074,787.7289377289378,776.4468864468864,643.8827838827839,444.0293040293041,0.057861,0.225342,0.979431,2.205658,-0.545807,4.63562,1.0,1.0,1.0,1.0,1.0,45.0,,1649753753.092
0.4986007349165369,0.1233779772133301,-0.1657858144250594,0.9941998180786276,0.2776794970785,0.1266512170434471,-0.1360475243842802,0.267852516407181,1.067347051759995,0.558319952468036,0.4704675540329499,0.8614626497620005,0.7399418192844098,-0.0591345985411013,-0.0572033641529874,0.7822048338435114,0.7256231199059351,0.0276344648813323,-0.3914154030199979,0.6524807677217571,761.941391941392,786.9230769230769,789.3406593406594,774.4322344322345,778.4615384615385,614.0659340659341,0.057861,0.225342,0.979431,2.205658,-0.545807,4.63562,1.0,1.0,1.0,1.0,1.0,45.0,,1649753753.092
0.4986007349165369,0.1233779772133301,-0.1657858144250594,0.9941998180786276,0.2776794970785,0.1266512170434471,-0.1360475243842802,0.267852516407181,1.067347051759995,0.558319952468036,0.4704675540329499,0.8614626497620005,0.7399418192844098,-0.0591345985411013,-0.0572033641529874,0.7822048338435114,0.7256231199059351,0.0276344648813323,-0.3914154030199979,0.6524807677217571,771.2087912087912,790.1465201465202,788.1318681318681,770.0,897.3260073260074,817.1428571428571,0.057861,0.225342,0.979431,2.205658,-0.545807,4.63562,1.0,1.0,1.0,1.0,1.0,45.0,,1649753753.092
0.4986007349165369,0.1233779772133301,-0.1657858144250594,0.9941998180786276,0.2776794970785,0.1266512170434471,-0.1360475243842802,0.267852516407181,1.067347051759995,0.558319952468036,0.4704675540329499,0.8614626497620005,0.7399418192844098,-0.0591345985411013,-0.0572033641529874,0.7822048338435114,0.7256231199059351,0.0276344648813323,-0.3914154030199979,0.6524807677217571,796.996336996337,796.5934065934066,790.952380952381,769.1941391941392,867.1062271062272,1059.304029304029,0.057861,0.225342,0.979431,2.205658,-0.545807,4.63562,1.0,1.0,1.0,1.0,1.0,45.0,,1649753753.093
0.4986007349165369,0.1233779772133301,-0.1657858144250594,0.9941998180786276,0.2776794970785,0.1266512170434471,-0.1360475243842802,0.267852516407181,1.067347051759995,0.558319952468036,0.4704675540329499,0.8614626497620005,0.7399418192844098,-0.0591345985411013,-0.0572033641529874,0.7822048338435114,0.7256231199059351,0.0276344648813323,-0.3914154030199979,0.6524807677217571,788.5347985347986,798.6080586080586,791.3553113553114,787.3260073260074,870.7326007326008,1145.531135531136,0.057861,0.225342,0.979431,2.205658,-0.545807,4.63562,1.0,1.0,1.0,1.0,1.0,45.0,,1649753753.093
0.4986007349165369,0.1233779772133301,-0.1657858144250594,0.9941998180786276,0.2776794970785,0.1266512170434471,-0.1360475243842802,0.267852516407181,1.067347051759995,0.558319952468036,0.4704675540329499,0.8614626497620005,0.7399418192844098,-0.0591345985411013,-0.0572033641529874,0.7822048338435114,0.7256231199059351,0.0276344648813323,-0.3914154030199979,0.6524807677217571,789.7435897435897,794.5787545787546,789.3406593406594,791.3553113553114,872.3443223443223,909.81684981685,0.057861,0.225342,0.979431,2.205658,-0.545807,4.63562,1.0,1.0,1.0,1.0,1.0,45.0,,1649753753.093
0.4986007349165369,0.1233779772133301,-0.1657858144250594,0.9941998180786276,0.2776794970785,0.1266512170434471,-0.1360475243842802,0.267852516407181,1.067347051759995,0.558319952468036,0.4704675540329499,0.8614626497620005,0.7399418192844098,-0.0591345985411013,-0.0572033641529874,0.7822048338435114,0.7256231199059351,0.0276344648813323,-0.3914154030199979,0.6524807677217571,795.7875457875458,792.5641025641025,793.7728937728938,790.1465201465202,861.4652014652015,815.1282051282052,0.057861,0.225342,0.979431,2.205658,-0.545807,4.63562,1.0,1.0,1.0,1.0,1.0,45.0,,1649753753.094
0.4986007349165369,0.1233779772133301,-0.1657858144250594,0.9941998180786276,0.2776794970785,0.1266512170434471,-0.1360475243842802,0.267852516407181,1.067347051759995,0.558319952468036,0.4704675540329499,0.8614626497620005,0.7399418192844098,-0.0591345985411013,-0.0572033641529874,0.7822048338435114,0.7256231199059351,0.0276344648813323,-0.3914154030199979,0.6524807677217571,782.4908424908425,791.7582417582418,794.1758241758242,778.8644688644689,861.0622710622711,737.7655677655678,0.057861,0.225342,0.979431,2.205658,-0.545807,4.63562,1.0,1.0,1.0,1.0,1.0,45.0,,1649753753.094
0.4986007349165369,0.1233779772133301,-0.1657858144250594,0.9941998180786276,0.2776794970785,0.1266512170434471,-0.1360475243842802,0.267852516407181,1.067347051759995,0.558319952468036,0.4704675540329499,0.8614626497620005,0.7399418192844098,-0.0591345985411013,-0.0572033641529874,0.7822048338435114,0.7256231199059351,0.0276344648813323,-0.3914154030199979,0.6524807677217571,805.054945054945,790.1465201465202,790.5494505494506,768.7912087912088,790.952380952381,651.941391941392,0.057861,0.225342,0.979431,2.205658,-0.545807,4.63562,1.0,1.0,1.0,1.0,1.0,45.0,,1649753753.095
0.4986007349165369,0.1233779772133301,-0.1657858144250594,0.9941998180786276,0.2776794970785,0.1266512170434471,-0.1360475243842802,0.267852516407181,1.067347051759995,0.558319952468036,0.4704675540329499,0.8614626497620005,0.7399418192844098,-0.0591345985411013,-0.0572033641529874,0.7822048338435114,0.7256231199059351,0.0276344648813323,-0.3914154030199979,0.6524807677217571,810.2930402930403,794.981684981685,796.996336996337,776.0439560439561,794.981684981685,931.978021978022,0.057861,0.225342,0.979431,2.205658,-0.545807,4.63562,1.0,1.0,1.0,1.0,1.0,45.0,,1649753753.095
0.4986007349165369,0.1233779772133301,-0.1657858144250594,0.9941998180786276,0.2776794970785,0.1266512170434471,-0.1360475243842802,0.267852516407181,1.067347051759995,0.558319952468036,0.4704675540329499,0.8614626497620005,0.7399418192844098,-0.0591345985411013,-0.0572033641529874,0.7822048338435114,0.7256231199059351,0.0276344648813323,-0.3914154030199979,0.6524807677217571,771.2087912087912,798.6080586080586,801.025641025641,800.6227106227107,872.7472527472528,969.4505494505496,0.064209,0.215454,0.996521,0.239258,-0.239258,4.673004,1.0,1.0,1.0,1.0,1.0,45.0,,1649753753.137
0.4986007349165369,0.1233779772133301,-0.1657858144250594,0.9941998180786276,0.2776794970785,0.1266512170434471,-0.1360475243842802,0.267852516407181,1.067347051759995,0.558319952468036,0.4704675540329499,0.8614626497620005,0.7399418192844098,-0.0591345985411013,-0.0572033641529874,0.7822048338435114,0.7256231199059351,0.0276344648813323,-0.3914154030199979,0.6524807677217571,764.3589743589744,795.7875457875458,794.5787545787546,789.7435897435897,838.0952380952381,941.2454212454212,0.064209,0.215454,0.996521,0.239258,-0.239258,4.673004,1.0,1.0,1.0,1.0,1.0,45.0,,1649753753.138
0.4986007349165369,0.1233779772133301,-0.1657858144250594,0.9941998180786276,0.2776794970785,0.1266512170434471,-0.1360475243842802,0.267852516407181,1.067347051759995,0.558319952468036,0.4704675540329499,0.8614626497620005,0.7399418192844098,-0.0591345985411013,-0.0572033641529874,0.7822048338435114,0.7256231199059351,0.0276344648813323,-0.3914154030199979,0.6524807677217571,773.6263736263736,791.7582417582418,784.9084249084249,780.4761904761905,760.7326007326008,657.985347985348,0.064209,0.215454,0.996521,0.239258,-0.239258,4.673004,1.0,1.0,1.0,1.0,1.0,45.0,,1649753753.138
0.4986007349165369,0.1233779772133301,-0.1657858144250594,0.9941998180786276,0.2776794970785,0.1266512170434471,-0.1360475243842802,0.267852516407181,1.067347051759995,0.558319952468036,0.4704675540329499,0.8614626497620005,0.7399418192844098,-0.0591345985411013,-0.0572033641529874,0.7822048338435114,0.7256231199059351,0.0276344648813323,-0.3914154030199979,0.6524807677217571,778.8644688644689,792.1611721611722,783.6996336996338,787.3260073260074,799.0109890109891,604.7985347985348,0.064209,0.215454,0.996521,0.239258,-0.239258,4.673004,1.0,1.0,1.0,1.0,1.0,45.0,,1649753753.138
0.4986007349165369,0.1233779772133301,-0.1657858144250594,0.9941998180786276,0.2776794970785,0.1266512170434471,-0.1360475243842802,0.267852516407181,1.067347051759995,0.558319952468036,0.4704675540329499,0.8614626497620005,0.7399418192844098,-0.0591345985411013,-0.0572033641529874,0.7822048338435114,0.7256231199059351,0.0276344648813323,-0.3914154030199979,0.6524807677217571,798.6080586080586,796.996336996337,788.9377289377289,778.8644688644689,830.0366300366301,791.7582417582418,0.064209,0.215454,0.996521,0.239258,-0.239258,4.673004,1.0,1.0,1.0,1.0,1.0,45.0,,1649753753.139
0.4986007349165369,0.1233779772133301,-0.1657858144250594,0.9941998180786276,0.2776794970785,0.1266512170434471,-0.1360475243842802,0.267852516407181,1.067347051759995,0.558319952468036,0.4704675540329499,0.8614626497620005,0.7399418192844098,-0.0591345985411013,-0.0572033641529874,0.7822048338435114,0.7256231199059351,0.0276344648813323,-0.3914154030199979,0.6524807677217571,809.8901098901099,796.1904761904763,790.952380952381,783.2967032967033,843.3333333333334,1019.81684981685,0.064209,0.215454,0.996521,0.239258,-0.239258,4.673004,1.0,1.0,1.0,1.0,1.0,45.0,,1649753753.139
0.4986007349165369,0.1233779772133301,-0.1657858144250594,0.9941998180786276,0.2776794970785,0.1266512170434471,-0.1360475243842802,0.267852516407181,1.067347051759995,0.558319952468036,0.4704675540329499,0.8614626497620005,0.7399418192844098,-0.0591345985411013,-0.0572033641529874,0.7822048338435114,0.7256231199059351,0.0276344648813323,-0.3914154030199979,0.6524807677217571,795.7875457875458,791.3553113553114,793.3699633699634,788.5347985347986,792.1611721611722,1119.340659340659,0.064209,0.215454,0.996521,0.239258,-0.239258,4.673004,1.0,1.0,1.0,1.0,1.0,45.0,,1649753753.139
0.5502094397177852,0.1524932011198345,-0.2143835758307972,0.9439887370158264,0.3045948754029689,0.1547069882500924,-0.1764987679968655,0.2295279328411072,1.059943155122429,0.5573915407676858,0.4704675540329499,0.8680682138022054,0.7114966170538665,-0.0517059481430676,-0.0721639159402004,0.7892131988253198,0.7296390943764308,0.0187783601030553,-0.3765071530858081,0.6541346902792458,784.1025641025641,790.952380952381,794.5787545787546,778.4615384615385,741.3919413919414,888.0586080586081,0.064209,0.215454,0.996521,0.239258,-0.239258,4.673004,1.0,1.0,1.0,1.0,1.0,45.0,,1649753753.139
0.5502094397177852,0.1524932011198345,-0.2143835758307972,0.9439887370158264,0.3045948754029689,0.1547069882500924,-0.1764987679968655,0.2295279328411072,1.059943155122429,0.5573915407676858,0.4704675540329499,0.8680682138022054,0.7114966170538665,-0.0517059481430676,-0.0721639159402004,0.7892131988253198,0.7296390943764308,0.0187783601030553,-0.3765071530858081,0.6541346902792458,799.4139194139194,796.5934065934066,794.981684981685,777.2527472527473,821.1721611721612,752.2710622710623,0.064209,0.215454,0.996521,0.239258,-0.239258,4.673004,1.0,1.0,1.0,1.0,1.0,45.0,,1649753753.14
0.5502094397177852,0.1524932011198345,-0.2143835758307972,0.9439887370158264,0.3045948754029689,0.1547069882500924,-0.1764987679968655,0.2295279328411072,1.059943155122429,0.5573915407676858,0.4704675540329499,0.8680682138022054,0.7114966170538665,-0.0517059481430676,-0.0721639159402004,0.7892131988253198,0.7296390943764308,0.0187783601030553,-0.3765071530858081,0.6541346902792458,820.7692307692308,797.8021978021978,794.1758241758242,779.2673992673992,828.8278388278388,738.1684981684982,0.064209,0.215454,0.996521,0.239258,-0.239258,4.673004,1.0,1.0,1.0,1.0,1.0,45.0,,1649753753.141
0.5502094397177852,0.1524932011198345,-0.2143835758307972,0.9439887370158264,0.3045948754029689,0.1547069882500924,-0.1764987679968655,0.2295279328411072,1.059943155122429,0.5573915407676858,0.4704675540329499,0.8680682138022054,0.7114966170538665,-0.0517059481430676,-0.0721639159402004,0.7892131988253198,0.7296390943764308,0.0187783601030553,-0.3765071530858081,0.6541346902792458,802.6373626373627,796.1904761904763,788.5347985347986,774.8351648351648,811.0989010989011,638.2417582417582,0.064209,0.215454,0.996521,0.239258,-0.239258,4.673004,1.0,1.0,1.0,1.0,1.0,45.0,,1649753753.141
0.5502094397177852,0.1524932011198345,-0.2143835758307972,0.9439887370158264,0.3045948754029689,0.1547069882500924,-0.1764987679968655,0.2295279328411072,1.059943155122429,0.5573915407676858,0.4704675540329499,0.8680682138022054,0.7114966170538665,-0.0517059481430676,-0.0721639159402004,0.7892131988253198,0.7296390943764308,0.0187783601030553,-0.3765071530858081,0.6541346902792458,780.8791208791209,797.3992673992674,792.1611721611722,782.893772893773,859.047619047619,700.2930402930403,0.064209,0.215454,0.996521,0.239258,-0.239258,4.673004,1.0,1.0,1.0,1.0,1.0,45.0,,1649753753.141
0.5502094397177852,0.1524932011198345,-0.2143835758307972,0.9439887370158264,0.3045948754029689,0.1547069882500924,-0.1764987679968655,0.2295279328411072,1.059943155122429,0.5573915407676858,0.4704675540329499,0.8680682138022054,0.7114966170538665,-0.0517059481430676,-0.0721639159402004,0.7892131988253198,0.7296390943764308,0.0187783601030553,-0.3765071530858081,0.6541346902792458,794.1758241758242,796.996336996337,794.981684981685,784.9084249084249,805.054945054945,730.5128205128206,0.064209,0.215454,0.996521,0.239258,-0.239258,4.673004,1.0,1.0,1.0,1.0,1.0,45.0,,1649753753.185
0.5502094397177852,0.1524932011198345,-0.2143835758307972,0.9439887370158264,0.3045948754029689,0.1547069882500924,-0.1764987679968655,0.2295279328411072,1.059943155122429,0.5573915407676858,0.4704675540329499,0.8680682138022054,0.7114966170538665,-0.0517059481430676,-0.0721639159402004,0.7892131988253198,0.7296390943764308,0.0187783601030553,-0.3765071530858081,0.6541346902792458,805.8608058608058,799.4139194139194,793.3699633699634,782.4908424908425,743.0036630036631,633.0036630036631,0.064209,0.215454,0.996521,0.239258,-0.239258,4.673004,1.0,1.0,1.0,1.0,1.0,45.0,,1649753753.185
0.5502094397177852,0.1524932011198345,-0.2143835758307972,0.9439887370158264,0.3045948754029689,0.1547069882500924,-0.1764987679968655,0.2295279328411072,1.059943155122429,0.5573915407676858,0.4704675540329499,0.8680682138022054,0.7114966170538665,-0.0517059481430676,-0.0721639159402004,0.7892131988253198,0.7296390943764308,0.0187783601030553,-0.3765071530858081,0.6541346902792458,793.3699633699634,798.6080586080586,794.1758241758242,773.6263736263736,750.2564102564103,501.2454212454213,0.064209,0.215454,0.996521,0.239258,-0.239258,4.673004,1.0,1.0,1.0,1.0,1.0,45.0,,1649753753.186
0.5502094397177852,0.1524932011198345,-0.2143835758307972,0.9439887370158264,0.3045948754029689,0.1547069882500924,-0.1764987679968655,0.2295279328411072,1.059943155122429,0.5573915407676858,0.4704675540329499,0.8680682138022054,0.7114966170538665,-0.0517059481430676,-0.0721639159402004,0.7892131988253198,0.7296390943764308,0.0187783601030553,-0.3765071530858081,0.6541346902792458,790.5494505494506,798.6080586080586,791.3553113553114,769.5970695970697,763.956043956044,774.8351648351648,0.064209,0.215454,0.996521,0.239258,-0.239258,4.673004,1.0,1.0,1.0,1.0,1.0,45.0,,1649753753.186
0.5502094397177852,0.1524932011198345,-0.2143835758307972,0.9439887370158264,0.3045948754029689,0.1547069882500924,-0.1764987679968655,0.2295279328411072,1.059943155122429,0.5573915407676858,0.4704675540329499,0.8680682138022054,0.7114966170538665,-0.0517059481430676,-0.0721639159402004,0.7892131988253198,0.7296390943764308,0.0187783601030553,-0.3765071530858081,0.6541346902792458,803.040293040293,800.6227106227107,793.7728937728938,775.2380952380953,755.0915750915751,887.2527472527473,0.064209,0.215454,0.996521,0.239258,-0.239258,4.673004,1.0,1.0,1.0,1.0,1.0,45.0,,1649753753.186
0.5502094397177852,0.1524932011198345,-0.2143835758307972,0.9439887370158264,0.3045948754029689,0.1547069882500924,-0.1764987679968655,0.2295279328411072,1.059943155122429,0.5573915407676858,0.4704675540329499,0.8680682138022054,0.7114966170538665,-0.0517059481430676,-0.0721639159402004,0.7892131988253198,0.7296390943764308,0.0187783601030553,-0.3765071530858081,0.6541346902792458,815.1282051282052,799.4139194139194,799.8168498168499,773.2234432234433,762.7472527472528,963.809523809524,0.064209,0.215454,0.996521,0.239258,-0.239258,4.673004,1.0,1.0,1.0,1.0,1.0,45.0,,1649753753.187
0.5502094397177852,0.1524932011198345,-0.2143835758307972,0.9439887370158264,0.3045948754029689,0.1547069882500924,-0.1764987679968655,0.2295279328411072,1.059943155122429,0.5573915407676858,0.4704675540329499,0.8680682138022054,0.7114966170538665,-0.0517059481430676,-0.0721639159402004,0.7892131988253198,0.7296390943764308,0.0187783601030553,-0.3765071530858081,0.6541346902792458,790.952380952381,798.2051282051282,798.6080586080586,772.4175824175825,787.7289377289378,1174.945054945055,0.064209,0.215454,0.996521,0.239258,-0.239258,4.673004,1.0,1.0,1.0,1.0,1.0,45.0,,1649753753.187
0.5502094397177852,0.1524932011198345,-0.2143835758307972,0.9439887370158264,0.3045948754029689,0.1547069882500924,-0.1764987679968655,0.2295279328411072,1.059943155122429,0.5573915407676858,0.4704675540329499,0.8680682138022054,0.7114966170538665,-0.0517059481430676,-0.0721639159402004,0.7892131988253198,0.7296390943764308,0.0187783601030553,-0.3765071530858081,0.6541346902792458,781.6849816849817,799.8168498168499,796.5934065934066,776.0439560439561,823.992673992674,1014.175824175824,0.064209,0.215454,0.996521,0.239258,-0.239258,4.673004,1.0,1.0,1.0,1.0,1.0,45.0,,1649753753.187
0.5502094397177852,0.1524932011198345,-0.2143835758307972,0.9439887370158264,0.3045948754029689,0.1547069882500924,-0.1764987679968655,0.2295279328411072,1.059943155122429,0.5573915407676858,0.4704675540329499,0.8680682138022054,0.7114966170538665,-0.0517059481430676,-0.0721639159402004,0.7892131988253198,0.7296390943764308,0.0187783601030553,-0.3765071530858081,0.6541346902792458,788.5347985347986,799.0109890109891,792.5641025641025,778.4615384615385,788.1318681318681,756.7032967032967,0.064209,0.215454,0.996521,0.239258,-0.239258,4.673004,1.0,1.0,1.0,1.0,1.0,45.0,,1649753753.188
0.5502094397177852,0.1524932011198345,-0.2143835758307972,0.9439887370158264,0.3045948754029689,0.1547069882500924,-0.1764987679968655,0.2295279328411072,1.059943155122429,0.5573915407676858,0.4704675540329499,0.8680682138022054,0.7114966170538665,-0.0517059481430676,-0.0721639159402004,0.7892131988253198,0.7296390943764308,0.0187783601030553,-0.3765071530858081,0.6541346902792458,783.2967032967033,791.3553113553114,789.3406593406594,784.5054945054945,716.8131868131868,599.9633699633699,0.064209,0.215454,0.996521,0.239258,-0.239258,4.673004,1.0,1.0,1.0,1.0,1.0,45.0,,1649753753.188
0.5502094397177852,0.1524932011198345,-0.2143835758307972,0.9439887370158264,0.3045948754029689,0.1547069882500924,-0.1764987679968655,0.2295279328411072,1.059943155122429,0.5573915407676858,0.4704675540329499,0.8680682138022054,0.7114966170538665,-0.0517059481430676,-0.0721639159402004,0.7892131988253198,0.7296390943764308,0.0187783601030553,-0.3765071530858081,0.6541346902792458,790.5494505494506,791.3553113553114,791.7582417582418,784.1025641025641,762.7472527472528,517.7655677655678,0.064209,0.215454,0.996521,0.239258,-0.239258,4.673004,1.0,1.0,1.0,1.0,1.0,45.0,,1649753753.189
0.5502094397177852,0.1524932011198345,-0.2143835758307972,0.9439887370158264,0.3045948754029689,0.1547069882500924,-0.1764987679968655,0.2295279328411072,1.059943155122429,0.5573915407676858,0.4704675540329499,0.8680682138022054,0.7114966170538665,-0.0517059481430676,-0.0721639159402004,0.7892131988253198,0.7296390943764308,0.0187783601030553,-0.3765071530858081,0.6541346902792458,805.054945054945,803.040293040293,797.3992673992674,777.2527472527473,768.7912087912088,818.7545787545788,0.064209,0.215454,0.996521,0.239258,-0.239258,4.673004,1.0,1.0,1.0,1.0,1.0,45.0,,1649753753.189
0.5502094397177852,0.1524932011198345,-0.2143835758307972,0.9439887370158264,0.3045948754029689,0.1547069882500924,-0.1764987679968655,0.2295279328411072,1.059943155122429,0.5573915407676858,0.4704675540329499,0.8680682138022054,0.7114966170538665,-0.0517059481430676,-0.0721639159402004,0.7892131988253198,0.7296390943764308,0.0187783601030553,-0.3765071530858081,0.6541346902792458,812.3076923076924,801.8315018315019,794.5787545787546,796.5934065934066,768.3882783882784,834.0659340659341,0.057617,0.208618,0.984924,-2.497253,2.123413,7.731018,1.0,1.0,1.0,1.0,1.0,45.0,,1649753753.211
0.5502094397177852,0.1524932011198345,-0.2143835758307972,0.9439887370158264,0.3045948754029689,0.1547069882500924,-0.1764987679968655,0.2295279328411072,1.059943155122429,0.5573915407676858,0.4704675540329499,0.8680682138022054,0.7114966170538665,-0.0517059481430676,-0.0721639159402004,0.7892131988253198,0.7296390943764308,0.0187783601030553,-0.3765071530858081,0.6541346902792458,799.4139194139194,795.7875457875458,787.7289377289378,784.1025641025641,854.6153846153846,714.7985347985348,0.057617,0.208618,0.984924,-2.497253,2.123413,7.731018,1.0,1.0,1.0,1.0,1.0,45.0,,1649753753.212
0.5502094397177852,0.1524932011198345,-0.2143835758307972,0.9439887370158264,0.3045948754029689,0.1547069882500924,-0.1764987679968655,0.2295279328411072,1.059943155122429,0.5573915407676858,0.4704675540329499,0.8680682138022054,0.7114966170538665,-0.0517059481430676,-0.0721639159402004,0.7892131988253198,0.7296390943764308,0.0187783601030553,-0.3765071530858081,0.6541346902792458,772.4175824175825,800.2197802197802,788.5347985347986,772.014652014652,877.1794871794872,710.7692307692308,0.057617,0.208618,0.984924,-2.497253,2.123413,7.731018,1.0,1.0,1.0,1.0,1.0,45.0,,1649753753.212
0.5502094397177852,0.1524932011198345,-0.2143835758307972,0.9439887370158264,0.3045948754029689,0.1547069882500924,-0.1764987679968655,0.2295279328411072,1.059943155122429,0.5573915407676858,0.4704675540329499,0.8680682138022054,0.7114966170538665,-0.0517059481430676,-0.0721639159402004,0.7892131988253198,0.7296390943764308,0.0187783601030553,-0.3765071530858081,0.6541346902792458,785.3113553113553,804.2490842490843,792.5641025641025,786.1172161172161,848.974358974359,671.2820512820513,0.057617,0.208618,0.984924,-2.497253,2.123413,7.731018,1.0,1.0,1.0,1.0,1.0,45.0,,1649753753.212
0.5502094397177852,0.1524932011198345,-0.2143835758307972,0.9439887370158264,0.3045948754029689,0.1547069882500924,-0.1764987679968655,0.2295279328411072,1.059943155122429,0.5573915407676858,0.4704675540329499,0.8680682138022054,0.7114966170538665,-0.0517059481430676,-0.0721639159402004,0.7892131988253198,0.7296390943764308,0.0187783601030553,-0.3765071530858081,0.6541346902792458,801.4285714285714,802.6373626373627,791.7582417582418,777.2527472527473,820.3663003663004,720.0366300366301,0.057617,0.208618,0.984924,-2.497253,2.123413,7.731018,1.0,1.0,1.0,1.0,1.0,45.0,,1649753753.213
0.5502094397177852,0.1524932011198345,-0.2143835758307972,0.9439887370158264,0.3045948754029689,0.1547069882500924,-0.1764987679968655,0.2295279328411072,1.059943155122429,0.5573915407676858,0.4704675540329499,0.8680682138022054,0.7114966170538665,-0.0517059481430676,-0.0721639159402004,0.7892131988253198,0.7296390943764308,0.0187783601030553,-0.3765071530858081,0.6541346902792458,789.7435897435897,801.8315018315019,792.967032967033,781.2820512820513,811.0989010989011,963.0036630036632,0.057617,0.208618,0.984924,-2.497253,2.123413,7.731018,1.0,1.0,1.0,1.0,1.0,45.0,,1649753753.213
0.5502094397177852,0.1524932011198345,-0.2143835758307972,0.9439887370158264,0.3045948754029689,0.1547069882500924,-0.1764987679968655,0.2295279328411072,1.059943155122429,0.5573915407676858,0.4704675540329499,0.8680682138022054,0.7114966170538665,-0.0517059481430676,-0.0721639159402004,0.7892131988253198,0.7296390943764308,0.0187783601030553,-0.3765071530858081,0.6541346902792458,790.5494505494506,800.2197802197802,792.5641025641025,798.2051282051282,774.8351648351648,916.2637362637364,0.057617,0.208618,0.984924,-2.497253,2.123413,7.731018,1.0,1.0,1.0,1.0,1.0,45.0,,1649753753.213
0.5502094397177852,0.1524932011198345,-0.2143835758307972,0.9439887370158264,0.3045948754029689,0.1547069882500924,-0.1764987679968655,0.2295279328411072,1.059943155122429,0.5573915407676858,0.4704675540329499,0.8680682138022054,0.7114966170538665,-0.0517059481430676,-0.0721639159402004,0.7892131988253198,0.7296390943764308,0.0187783601030553,-0.3765071530858081,0.6541346902792458,798.2051282051282,801.025641025641,786.9230769230769,793.3699633699634,729.3040293040293,903.3699633699634,0.057617,0.208618,0.984924,-2.497253,2.123413,7.731018,1.0,1.0,1.0,1.0,1.0,45.0,,1649753753.214
0.5502094397177852,0.1524932011198345,-0.2143835758307972,0.9439887370158264,0.3045948754029689,0.1547069882500924,-0.1764987679968655,0.2295279328411072,1.059943155122429,0.5573915407676858,0.4704675540329499,0.8680682138022054,0.7114966170538665,-0.0517059481430676,-0.0721639159402004,0.7892131988253198,0.7296390943764308,0.0187783601030553,-0.3765071530858081,0.6541346902792458,805.4578754578755,799.4139194139194,783.6996336996338,783.6996336996338,772.8205128205128,833.6630036630037,0.057617,0.208618,0.984924,-2.497253,2.123413,7.731018,1.0,1.0,1.0,1.0,1.0,45.0,,1649753753.214
0.6092172564671109,0.1691262437926528,-0.220570297439264,0.9170361945594442,0.3299592556418442,0.1778139548805164,-0.1930042534420349,0.1928597245515082,1.038944789603658,0.5567576586540448,0.4704675540329499,0.8680682138022054,0.6915436245210752,-0.0457443664662786,-0.087472571427901,0.7817941744477299,0.7340118000265924,0.0142162403338863,-0.3608247944859476,0.6353629515603998,812.7106227106227,794.5787545787546,782.4908424908425,782.893772893773,821.978021978022,663.2234432234433,0.057617,0.208618,0.984924,-2.497253,2.123413,7.731018,1.0,1.0,1.0,1.0,1.0,45.0,,1649753753.215
0.6092172564671109,0.1691262437926528,-0.220570297439264,0.9170361945594442,0.3299592556418442,0.1778139548805164,-0.1930042534420349,0.1928597245515082,1.038944789603658,0.5567576586540448,0.4704675540329499,0.8680682138022054,0.6915436245210752,-0.0457443664662786,-0.087472571427901,0.7817941744477299,0.7340118000265924,0.0142162403338863,-0.3608247944859476,0.6353629515603998,804.2490842490843,796.1904761904763,784.5054945054945,780.0732600732601,750.2564102564103,459.3406593406593,0.057617,0.208618,0.984924,-2.497253,2.123413,7.731018,1.0,1.0,1.0,1.0,1.0,45.0,,1649753753.216
0.6092172564671109,0.1691262437926528,-0.220570297439264,0.9170361945594442,0.3299592556418442,0.1778139548805164,-0.1930042534420349,0.1928597245515082,1.038944789603658,0.5567576586540448,0.4704675540329499,0.8680682138022054,0.6915436245210752,-0.0457443664662786,-0.087472571427901,0.7817941744477299,0.7340118000265924,0.0142162403338863,-0.3608247944859476,0.6353629515603998,797.8021978021978,799.4139194139194,790.5494505494506,780.8791208791209,716.8131868131868,508.4981684981685,0.057617,0.208618,0.984924,-2.497253,2.123413,7.731018,1.0,1.0,1.0,1.0,1.0,45.0,,1649753753.216
0.6092172564671109,0.1691262437926528,-0.220570297439264,0.9170361945594442,0.3299592556418442,0.1778139548805164,-0.1930042534420349,0.1928597245515082,1.038944789603658,0.5567576586540448,0.4704675540329499,0.8680682138022054,0.6915436245210752,-0.0457443664662786,-0.087472571427901,0.7817941744477299,0.7340118000265924,0.0142162403338863,-0.3608247944859476,0.6353629515603998,790.952380952381,801.025641025641,788.5347985347986,791.7582417582418,771.2087912087912,700.2930402930403,0.056885,0.208862,0.982971,-4.867401,2.706604,10.826416,1.0,1.0,1.0,1.0,1.0,45.0,,1649753753.26
0.6092172564671109,0.1691262437926528,-0.220570297439264,0.9170361945594442,0.3299592556418442,0.1778139548805164,-0.1930042534420349,0.1928597245515082,1.038944789603658,0.5567576586540448,0.4704675540329499,0.8680682138022054,0.6915436245210752,-0.0457443664662786,-0.087472571427901,0.7817941744477299,0.7340118000265924,0.0142162403338863,-0.3608247944859476,0.6353629515603998,776.0439560439561,797.8021978021978,782.4908424908425,769.1941391941392,786.9230769230769,660.4029304029305,0.056885,0.208862,0.982971,-4.867401,2.706604,10.826416,1.0,1.0,1.0,1.0,1.0,45.0,,1649753753.26
0.6092172564671109,0.1691262437926528,-0.220570297439264,0.9170361945594442,0.3299592556418442,0.1778139548805164,-0.1930042534420349,0.1928597245515082,1.038944789603658,0.5567576586540448,0.4704675540329499,0.8680682138022054,0.6915436245210752,-0.0457443664662786,-0.087472571427901,0.7817941744477299,0.7340118000265924,0.0142162403338863,-0.3608247944859476,0.6353629515603998,789.7435897435897,795.7875457875458,784.1025641025641,755.8974358974359,746.6300366300367,554.4322344322344,0.056885,0.208862,0.982971,-4.867401,2.706604,10.826416,1.0,1.0,1.0,1.0,1.0,45.0,,1649753753.26
0.6092172564671109,0.1691262437926528,-0.220570297439264,0.9170361945594442,0.3299592556418442,0.1778139548805164,-0.1930042534420349,0.1928597245515082,1.038944789603658,0.5567576586540448,0.4704675540329499,0.8680682138022054,0.6915436245210752,-0.0457443664662786,-0.087472571427901,0.7817941744477299,0.7340118000265924,0.0142162403338863,-0.3608247944859476,0.6353629515603998,795.7875457875458,800.2197802197802,788.9377289377289,777.2527472527473,769.1941391941392,598.7545787545788,0.056885,0.208862,0.982971,-4.867401,2.706604,10.826416,1.0,1.0,1.0,1.0,1.0,45.0,,1649753753.261
0.6092172564671109,0.1691262437926528,-0.220570297439264,0.9170361945594442,0.3299592556418442,0.1778139548805164,-0.1930042534420349,0.1928597245515082,1.038944789603658,0.5567576586540448,0.4704675540329499,0.8680682138022054,0.6915436245210752,-0.0457443664662786,-0.087472571427901,0.7817941744477299,0.7340118000265924,0.0142162403338863,-0.3608247944859476,0.6353629515603998,779.6703296703297,803.040293040293,790.1465201465202,779.6703296703297,778.4615384615385,672.893772893773,0.056885,0.208862,0.982971,-4.867401,2.706604,10.826416,1.0,1.0,1.0,1.0,1.0,45.0,,1649753753.261
0.6092172564671109,0.1691262437926528,-0.220570297439264,0.9170361945594442,0.3299592556418442,0.1778139548805164,-0.1930042534420349,0.1928597245515082,1.038944789603658,0.5567576586540448,0.4704675540329499,0.8680682138022054,0.6915436245210752,-0.0457443664662786,-0.087472571427901,0.7817941744477299,0.7340118000265924,0.0142162403338863,-0.3608247944859476,0.6353629515603998,790.1465201465202,803.040293040293,791.7582417582418,774.0293040293041,708.3516483516484,885.6410256410256,0.056885,0.208862,0.982971,-4.867401,2.706604,10.826416,1.0,1.0,1.0,1.0,1.0,45.0,,1649753753.261
0.6092172564671109,0.1691262437926528,-0.220570297439264,0.9170361945594442,0.3299592556418442,0.1778139548805164,-0.1930042534420349,0.1928597245515082,1.038944789603658,0.5567576586540448,0.4704675540329499,0.8680682138022054,0.6915436245210752,-0.0457443664662786,-0.087472571427901,0.7817941744477299,0.7340118000265924,0.0142162403338863,-0.3608247944859476,0.6353629515603998,799.8168498168499,800.2197802197802,791.7582417582418,788.1318681318681,738.5714285714286,861.8681318681319,0.056885,0.208862,0.982971,-4.867401,2.706604,10.826416,1.0,1.0,1.0,1.0,1.0,45.0,,1649753753.262
0.6092172564671109,0.1691262437926528,-0.220570297439264,0.9170361945594442,0.3299592556418442,0.1778139548805164,-0.1930042534420349,0.1928597245515082,1.038944789603658,0.5567576586540448,0.4704675540329499,0.8680682138022054,0.6915436245210752,-0.0457443664662786,-0.087472571427901,0.7817941744477299,0.7340118000265924,0.0142162403338863,-0.3608247944859476,0.6353629515603998,799.8168498168499,796.5934065934066,787.7289377289378,783.2967032967033,758.3150183150184,736.5567765567765,0.056885,0.208862,0.982971,-4.867401,2.706604,10.826416,1.0,1.0,1.0,1.0,1.0,45.0,,1649753753.262
0.6092172564671109,0.1691262437926528,-0.220570297439264,0.9170361945594442,0.3299592556418442,0.1778139548805164,-0.1930042534420349,0.1928597245515082,1.038944789603658,0.5567576586540448,0.4704675540329499,0.8680682138022054,0.6915436245210752,-0.0457443664662786,-0.087472571427901,0.7817941744477299,0.7340118000265924,0.0142162403338863,-0.3608247944859476,0.6353629515603998,786.1172161172161,794.5787545787546,786.1172161172161,759.5238095238095,792.967032967033,912.2344322344322,0.056885,0.208862,0.982971,-4.867401,2.706604,10.826416,1.0,1.0,1.0,1.0,1.0,45.0,,1649753753.262
0.6092172564671109,0.1691262437926528,-0.220570297439264,0.9170361945594442,0.3299592556418442,0.1778139548805164,-0.1930042534420349,0.1928597245515082,1.038944789603658,0.5567576586540448,0.4704675540329499,0.8680682138022054,0.6915436245210752,-0.0457443664662786,-0.087472571427901,0.7817941744477299,0.7340118000265924,0.0142162403338863,-0.3608247944859476,0.6353629515603998,786.1172161172161,796.996336996337,791.7582417582418,758.3150183150184,865.0915750915751,765.5677655677656,0.056885,0.208862,0.982971,-4.867401,2.706604,10.826416,1.0,1.0,1.0,1.0,1.0,45.0,,1649753753.263
0.6092172564671109,0.1691262437926528,-0.220570297439264,0.9170361945594442,0.3299592556418442,0.1778139548805164,-0.1930042534420349,0.1928597245515082,1.038944789603658,0.5567576586540448,0.4704675540329499,0.8680682138022054,0.6915436245210752,-0.0457443664662786,-0.087472571427901,0.7817941744477299,0.7340118000265924,0.0142162403338863,-0.3608247944859476,0.6353629515603998,798.6080586080586,800.6227106227107,794.981684981685,765.1648351648352,894.1025641025641,740.1831501831502,0.056885,0.208862,0.982971,-4.867401,2.706604,10.826416,1.0,1.0,1.0,1.0,1.0,45.0,,1649753753.263
0.6092172564671109,0.1691262437926528,-0.220570297439264,0.9170361945594442,0.3299592556418442,0.1778139548805164,-0.1930042534420349,0.1928597245515082,1.038944789603658,0.5567576586540448,0.4704675540329499,0.8680682138022054,0.6915436245210752,-0.0457443664662786,-0.087472571427901,0.7817941744477299,0.7340118000265924,0.0142162403338863,-0.3608247944859476,0.6353629515603998,794.981684981685,800.6227106227107,788.9377289377289,761.941391941392,850.989010989011,990.8058608058608,0.056885,0.208862,0.982971,-4.867401,2.706604,10.826416,1.0,1.0,1.0,1.0,1.0,45.0,,1649753753.263
0.6092172564671109,0.1691262437926528,-0.220570297439264,0.9170361945594442,0.3299592556418442,0.1778139548805164,-0.1930042534420349,0.1928597245515082,1.038944789603658,0.5567576586540448,0.4704675540329499,0.8680682138022054,0.6915436245210752,-0.0457443664662786,-0.087472571427901,0.7817941744477299,0.7340118000265924,0.0142162403338863,-0.3608247944859476,0.6353629515603998,796.1904761904763,795.7875457875458,788.5347985347986,774.8351648351648,761.1355311355312,724.8717948717949,0.052063,0.190796,0.991333,-5.839386,3.282318,12.060089,1.0,1.0,1.0,1.0,1.0,45.0,,1649753753.306
0.6092172564671109,0.1691262437926528,-0.220570297439264,0.9170361945594442,0.3299592556418442,0.1778139548805164,-0.1930042534420349,0.1928597245515082,1.038944789603658,0.5567576586540448,0.4704675540329499,0.8680682138022054,0.6915436245210752,-0.0457443664662786,-0.087472571427901,0.7817941744477299,0.7340118000265924,0.0142162403338863,-0.3608247944859476,0.6353629515603998,808.2783882783883,794.981684981685,787.3260073260074,779.2673992673992,740.989010989011,529.4505494505495,0.052063,0.190796,0.991333,-5.839386,3.282318,12.060089,1.0,1.0,1.0,1.0,1.0,45.0,,1649753753.307
0.6092172564671109,0.1691262437926528,-0.220570297439264,0.9170361945594442,0.3299592556418442,0.1778139548805164,-0.1930042534420349,0.1928597245515082,1.038944789603658,0.5567576586540448,0.4704675540329499,0.8680682138022054,0.6915436245210752,-0.0457443664662786,-0.087472571427901,0.7817941744477299,0.7340118000265924,0.0142162403338863,-0.3608247944859476,0.6353629515603998,809.8901098901099,793.3699633699634,784.5054945054945,761.941391941392,817.1428571428571,560.4761904761905,0.052063,0.190796,0.991333,-5.839386,3.282318,12.060089,1.0,1.0,1.0,1.0,1.0,45.0,,1649753753.307
0.6092172564671109,0.1691262437926528,-0.220570297439264,0.9170361945594442,0.3299592556418442,0.1778139548805164,-0.1930042534420349,0.1928597245515082,1.038944789603658,0.5567576586540448,0.4704675540329499,0.8680682138022054,0.6915436245210752,-0.0457443664662786,-0.087472571427901,0.7817941744477299,0.7340118000265924,0.0142162403338863,-0.3608247944859476,0.6353629515603998,803.040293040293,787.3260073260074,784.9084249084249,767.1794871794872,808.2783882783883,623.7362637362637,0.052063,0.190796,0.991333,-5.839386,3.282318,12.060089,1.0,1.0,1.0,1.0,1.0,45.0,,1649753753.307
0.6092172564671109,0.1691262437926528,-0.220570297439264,0.9170361945594442,0.3299592556418442,0.1778139548805164,-0.1930042534420349,0.1928597245515082,1.038944789603658,0.5567576586540448,0.4704675540329499,0.8680682138022054,0.6915436245210752,-0.0457443664662786,-0.087472571427901,0.7817941744477299,0.7340118000265924,0.0142162403338863,-0.3608247944859476,0.6353629515603998,783.6996336996338,794.5787545787546,786.1172161172161,783.6996336996338,780.4761904761905,649.92673992674,0.052063,0.190796,0.991333,-5.839386,3.282318,12.060089,1.0,1.0,1.0,1.0,1.0,45.0,,1649753753.308
0.6092172564671109,0.1691262437926528,-0.220570297439264,0.9170361945594442,0.3299592556418442,0.1778139548805164,-0.1930042534420349,0.1928597245515082,1.038944789603658,0.5567576586540448,0.4704675540329499,0.8680682138022054,0.6915436245210752,-0.0457443664662786,-0.087472571427901,0.7817941744477299,0.7340118000265924,0.0142162403338863,-0.3608247944859476,0.6353629515603998,779.6703296703297,799.8168498168499,787.3260073260074,779.2673992673992,771.2087912087912,819.96336996337,0.052063,0.190796,0.991333,-5.839386,3.282318,12.060089,1.0,1.0,1.0,1.0,1.0,45.0,,1649753753.308
0.6092172564671109,0.1691262437926528,-0.220570297439264,0.9170361945594442,0.3299592556418442,0.1778139548805164,-0.1930042534420349,0.1928597245515082,1.038944789603658,0.5567576586540448,0.4704675540329499,0.8680682138022054,0.6915436245210752,-0.0457443664662786,-0.087472571427901,0.7817941744477299,0.7340118000265924,0.0142162403338863,-0.3608247944859476,0.6353629515603998,788.9377289377289,797.3992673992674,790.1465201465202,772.4175824175825,741.7948717948718,1043.186813186813,0.052063,0.190796,0.991333,-5.839386,3.282318,12.060089,1.0,1.0,1.0,1.0,1.0,45.0,,1649753753.308
0.6092172564671109,0.1691262437926528,-0.220570297439264,0.9170361945594442,0.3299592556418442,0.1778139548805164,-0.1930042534420349,0.1928597245515082,1.038944789603658,0.5567576586540448,0.4704675540329499,0.8680682138022054,0.6915436245210752,-0.0457443664662786,-0.087472571427901,0.7817941744477299,0.7340118000265924,0.0142162403338863,-0.3608247944859476,0.6353629515603998,791.3553113553114,794.5787545787546,787.7289377289378,767.985347985348,727.6923076923077,865.4945054945056,0.052063,0.190796,0.991333,-5.839386,3.282318,12.060089,1.0,1.0,1.0,1.0,1.0,45.0,,1649753753.309
0.6092172564671109,0.1691262437926528,-0.220570297439264,0.9170361945594442,0.3299592556418442,0.1778139548805164,-0.1930042534420349,0.1928597245515082,1.038944789603658,0.5567576586540448,0.4704675540329499,0.8680682138022054,0.6915436245210752,-0.0457443664662786,-0.087472571427901,0.7817941744477299,0.7340118000265924,0.0142162403338863,-0.3608247944859476,0.6353629515603998,799.4139194139194,794.1758241758242,786.9230769230769,788.5347985347986,776.4468864468864,674.9084249084249,0.052063,0.190796,0.991333,-5.839386,3.282318,12.060089,1.0,1.0,1.0,1.0,1.0,45.0,,1649753753.309
0.6092172564671109,0.1691262437926528,-0.220570297439264,0.9170361945594442,0.3299592556418442,0.1778139548805164,-0.1930042534420349,0.1928597245515082,1.038944789603658,0.5567576586540448,0.4704675540329499,0.8680682138022054,0.6915436245210752,-0.0457443664662786,-0.087472571427901,0.7817941744477299,0.7340118000265924,0.0142162403338863,-0.3608247944859476,0.6353629515603998,794.981684981685,798.2051282051282,791.7582417582418,788.5347985347986,894.5054945054945,769.5970695970697,0.052063,0.190796,0.991333,-5.839386,3.282318,12.060089,1.0,1.0,1.0,1.0,1.0,45.0,,1649753753.309
0.6092172564671109,0.1691262437926528,-0.220570297439264,0.9170361945594442,0.3299592556418442,0.1778139548805164,-0.1930042534420349,0.1928597245515082,1.038944789603658,0.5567576586540448,0.4704675540329499,0.8680682138022054,0.6915436245210752,-0.0457443664662786,-0.087472571427901,0.7817941744477299,0.7340118000265924,0.0142162403338863,-0.3608247944859476,0.6353629515603998,798.6080586080586,797.3992673992674,791.7582417582418,782.0879120879121,904.981684981685,958.974358974359,0.052063,0.190796,0.991333,-5.839386,3.282318,12.060089,1.0,1.0,1.0,1.0,1.0,45.0,,1649753753.309
0.6620448646436259,0.1680543430414078,-0.192258954180911,0.8864540470229174,0.3508183784824235,0.1877529267452026,-0.187829361976034,0.1375585011185983,0.9944756235086464,0.5547921789306205,0.4704675540329499,0.8629089069134299,0.6818122303452077,-0.0360114734833124,-0.0971284862223072,0.7906233155421142,0.7426448689924664,0.0053547467343971,-0.3492408991068225,0.6031399271739261,794.1758241758242,794.5787545787546,792.1611721611722,793.3699633699634,816.7399267399268,800.2197802197802,0.052063,0.190796,0.991333,-5.839386,3.282318,12.060089,1.0,1.0,1.0,1.0,1.0,45.0,,1649753753.31
0.6620448646436259,0.1680543430414078,-0.192258954180911,0.8864540470229174,0.3508183784824235,0.1877529267452026,-0.187829361976034,0.1375585011185983,0.9944756235086464,0.5547921789306205,0.4704675540329499,0.8629089069134299,0.6818122303452077,-0.0360114734833124,-0.0971284862223072,0.7906233155421142,0.7426448689924664,0.0053547467343971,-0.3492408991068225,0.6031399271739261,786.1172161172161,795.7875457875458,791.7582417582418,782.4908424908425,798.2051282051282,643.4798534798535,0.050659,0.177307,0.971313,-7.46933,3.334656,12.635803,1.0,1.0,1.0,1.0,1.0,45.0,,1649753753.375
0.6620448646436259,0.1680543430414078,-0.192258954180911,0.8864540470229174,0.3508183784824235,0.1877529267452026,-0.187829361976034,0.1375585011185983,0.9944756235086464,0.5547921789306205,0.4704675540329499,0.8629089069134299,0.6818122303452077,-0.0360114734833124,-0.0971284862223072,0.7906233155421142,0.7426448689924664,0.0053547467343971,-0.3492408991068225,0.6031399271739261,788.9377289377289,793.7728937728938,788.5347985347986,782.4908424908425,763.956043956044,637.4358974358975,0.050659,0.177307,0.971313,-7.46933,3.334656,12.635803,1.0,1.0,1.0,1.0,1.0,45.0,,1649753753.376
0.6620448646436259,0.1680543430414078,-0.192258954180911,0.8864540470229174,0.3508183784824235,0.1877529267452026,-0.187829361976034,0.1375585011185983,0.9944756235086464,0.5547921789306205,0.4704675540329499,0.8629089069134299,0.6818122303452077,-0.0360114734833124,-0.0971284862223072,0.7906233155421142,0.7426448689924664,0.0053547467343971,-0.3492408991068225,0.6031399271739261,794.981684981685,798.2051282051282,788.9377289377289,782.0879120879121,680.5494505494506,435.970695970696,0.050659,0.177307,0.971313,-7.46933,3.334656,12.635803,1.0,1.0,1.0,1.0,1.0,45.0,,1649753753.377
0.6620448646436259,0.1680543430414078,-0.192258954180911,0.8864540470229174,0.3508183784824235,0.1877529267452026,-0.187829361976034,0.1375585011185983,0.9944756235086464,0.5547921789306205,0.4704675540329499,0.8629089069134299,0.6818122303452077,-0.0360114734833124,-0.0971284862223072,0.7906233155421142,0.7426448689924664,0.0053547467343971,-0.3492408991068225,0.6031399271739261,812.7106227106227,802.2344322344322,790.5494505494506,795.3846153846154,688.2051282051282,485.1282051282051,0.050659,0.177307,0.971313,-7.46933,3.334656,12.635803,1.0,1.0,1.0,1.0,1.0,45.0,,1649753753.377
0.6620448646436259,0.1680543430414078,-0.192258954180911,0.8864540470229174,0.3508183784824235,0.1877529267452026,-0.187829361976034,0.1375585011185983,0.9944756235086464,0.5547921789306205,0.4704675540329499,0.8629089069134299,0.6818122303452077,-0.0360114734833124,-0.0971284862223072,0.7906233155421142,0.7426448689924664,0.0053547467343971,-0.3492408991068225,0.6031399271739261,822.7838827838829,800.6227106227107,793.3699633699634,785.7142857142858,782.0879120879121,664.4322344322344,0.050659,0.177307,0.971313,-7.46933,3.334656,12.635803,1.0,1.0,1.0,1.0,1.0,45.0,,1649753753.377
0.6620448646436259,0.1680543430414078,-0.192258954180911,0.8864540470229174,0.3508183784824235,0.1877529267452026,-0.187829361976034,0.1375585011185983,0.9944756235086464,0.5547921789306205,0.4704675540329499,0.8629089069134299,0.6818122303452077,-0.0360114734833124,-0.0971284862223072,0.7906233155421142,0.7426448689924664,0.0053547467343971,-0.3492408991068225,0.6031399271739261,804.2490842490843,807.4725274725275,796.5934065934066,770.4029304029305,744.6153846153846,886.0439560439561,0.050659,0.177307,0.971313,-7.46933,3.334656,12.635803,1.0,1.0,1.0,1.0,1.0,45.0,,1649753753.378
0.6620448646436259,0.1680543430414078,-0.192258954180911,0.8864540470229174,0.3508183784824235,0.1877529267452026,-0.187829361976034,0.1375585011185983,0.9944756235086464,0.5547921789306205,0.4704675540329499,0.8629089069134299,0.6818122303452077,-0.0360114734833124,-0.0971284862223072,0.7906233155421142,0.7426448689924664,0.0053547467343971,-0.3492408991068225,0.6031399271739261,791.3553113553114,809.8901098901099,795.7875457875458,782.4908424908425,686.1904761904763,957.7655677655678,0.050659,0.177307,0.971313,-7.46933,3.334656,12.635803,1.0,1.0,1.0,1.0,1.0,45.0,,1649753753.378
0.6620448646436259,0.1680543430414078,-0.192258954180911,0.8864540470229174,0.3508183784824235,0.1877529267452026,-0.187829361976034,0.1375585011185983,0.9944756235086464,0.5547921789306205,0.4704675540329499,0.8629089069134299,0.6818122303452077,-0.0360114734833124,-0.0971284862223072,0.7906233155421142,0.7426448689924664,0.0053547467343971,-0.3492408991068225,0.6031399271739261,800.2197802197802,801.8315018315019,790.1465201465202,800.2197802197802,762.3443223443223,795.7875457875458,0.050659,0.177307,0.971313,-7.46933,3.334656,12.635803,1.0,1.0,1.0,1.0,1.0,45.0,,1649753753.378
0.6620448646436259,0.1680543430414078,-0.192258954180911,0.8864540470229174,0.3508183784824235,0.1877529267452026,-0.187829361976034,0.1375585011185983,0.9944756235086464,0.5547921789306205,0.4704675540329499,0.8629089069134299,0.6818122303452077,-0.0360114734833124,-0.0971284862223072,0.7906233155421142,0.7426448689924664,0.0053547467343971,-0.3492408991068225,0.6031399271739261,801.025641025641,800.6227106227107,792.1611721611722,780.8791208791209,803.4432234432235,703.919413919414,0.050659,0.177307,0.971313,-7.46933,3.334656,12.635803,1.0,1.0,1.0,1.0,1.0,45.0,,1649753753.379
0.6620448646436259,0.1680543430414078,-0.192258954180911,0.8864540470229174,0.3508183784824235,0.1877529267452026,-0.187829361976034,0.1375585011185983,0.9944756235086464,0.5547921789306205,0.4704675540329499,0.8629089069134299,0.6818122303452077,-0.0360114734833124,-0.0971284862223072,0.7906233155421142,0.7426448689924664,0.0053547467343971,-0.3492408991068225,0.6031399271739261,785.7142857142858,798.6080586080586,792.5641025641025,766.3736263736264,768.7912087912088,599.5604395604396,0.050659,0.177307,0.971313,-7.46933,3.334656,12.635803,1.0,1.0,1.0,1.0,1.0,45.0,,1649753753.379
0.6620448646436259,0.1680543430414078,-0.192258954180911,0.8864540470229174,0.3508183784824235,0.1877529267452026,-0.187829361976034,0.1375585011185983,0.9944756235086464,0.5547921789306205,0.4704675540329499,0.8629089069134299,0.6818122303452077,-0.0360114734833124,-0.0971284862223072,0.7906233155421142,0.7426448689924664,0.0053547467343971,-0.3492408991068225,0.6031399271739261,787.3260073260074,794.1758241758242,786.5201465201466,765.9706959706959,711.5750915750916,561.6849816849817,0.050659,0.177307,0.971313,-7.46933,3.334656,12.635803,1.0,1.0,1.0,1.0,1.0,45.0,,1649753753.38
0.6620448646436259,0.1680543430414078,-0.192258954180911,0.8864540470229174,0.3508183784824235,0.1877529267452026,-0.187829361976034,0.1375585011185983,0.9944756235086464,0.5547921789306205,0.4704675540329499,0.8629089069134299,0.6818122303452077,-0.0360114734833124,-0.0971284862223072,0.7906233155421142,0.7426448689924664,0.0053547467343971,-0.3492408991068225,0.6031399271739261,805.8608058608058,796.1904761904763,786.5201465201466,770.0,744.2124542124542,907.8021978021978,0.050659,0.177307,0.971313,-7.46933,3.334656,12.635803,1.0,1.0,1.0,1.0,1.0,45.0,,1649753753.38
0.6620448646436259,0.1680543430414078,-0.192258954180911,0.8864540470229174,0.3508183784824235,0.1877529267452026,-0.187829361976034,0.1375585011185983,0.9944756235086464,0.5547921789306205,0.4704675540329499,0.8629089069134299,0.6818122303452077,-0.0360114734833124,-0.0971284862223072,0.7906233155421142,0.7426448689924664,0.0053547467343971,-0.3492408991068225,0.6031399271739261,797.3992673992674,799.4139194139194,789.3406593406594,788.5347985347986,745.0183150183151,960.989010989011,0.05426,0.153809,0.98999,-8.598328,2.960815,15.820923,1.0,1.0,1.0,1.0,1.0,45.0,,1649753753.402
0.6620448646436259,0.1680543430414078,-0.192258954180911,0.8864540470229174,0.3508183784824235,0.1877529267452026,-0.187829361976034,0.1375585011185983,0.9944756235086464,0.5547921789306205,0.4704675540329499,0.8629089069134299,0.6818122303452077,-0.0360114734833124,-0.0971284862223072,0.7906233155421142,0.7426448689924664,0.0053547467343971,-0.3492408991068225,0.6031399271739261,796.996336996337,800.6227106227107,789.7435897435897,770.0,705.1282051282052,720.4395604395604,0.05426,0.153809,0.98999,-8.598328,2.960815,15.820923,1.0,1.0,1.0,1.0,1.0,45.0,,1649753753.402
0.6620448646436259,0.1680543430414078,-0.192258954180911,0.8864540470229174,0.3508183784824235,0.1877529267452026,-0.187829361976034,0.1375585011185983,0.9944756235086464,0.5547921789306205,0.4704675540329499,0.8629089069134299,0.6818122303452077,-0.0360114734833124,-0.0971284862223072,0.7906233155421142,0.7426448689924664,0.0053547467343971,-0.3492408991068225,0.6031399271739261,796.996336996337,798.2051282051282,784.5054945054945,775.2380952380953,701.0989010989011,439.1941391941392,0.05426,0.153809,0.98999,-8.598328,2.960815,15.820923,1.0,1.0,1.0,1.0,1.0,45.0,,1649753753.403
0.6620448646436259,0.1680543430414078,-0.192258954180911,0.8864540470229174,0.3508183784824235,0.1877529267452026,-0.187829361976034,0.1375585011185983,0.9944756235086464,0.5547921789306205,0.4704675540329499,0.8629089069134299,0.6818122303452077,-0.0360114734833124,-0.0971284862223072,0.7906233155421142,0.7426448689924664,0.0053547467343971,-0.3492408991068225,0.6031399271739261,784.1025641025641,800.6227106227107,782.0879120879121,793.3699633699634,720.0366300366301,506.0805860805861,0.05426,0.153809,0.98999,-8.598328,2.960815,15.820923,1.0,1.0,1.0,1.0,1.0,45.0,,1649753753.403
0.6620448646436259,0.1680543430414078,-0.192258954180911,0.8864540470229174,0.3508183784824235,0.1877529267452026,-0.187829361976034,0.1375585011185983,0.9944756235086464,0.5547921789306205,0.4704675540329499,0.8629089069134299,0.6818122303452077,-0.0360114734833124,-0.0971284862223072,0.7906233155421142,0.7426448689924664,0.0053547467343971,-0.3492408991068225,0.6031399271739261,807.4725274725275,808.6813186813187,787.7289377289378,773.6263736263736,766.3736263736264,684.5787545787546,0.05426,0.153809,0.98999,-8.598328,2.960815,15.820923,1.0,1.0,1.0,1.0,1.0,45.0,,1649753753.404
0.6620448646436259,0.1680543430414078,-0.192258954180911,0.8864540470229174,0.3508183784824235,0.1877529267452026,-0.187829361976034,0.1375585011185983,0.9944756235086464,0.5547921789306205,0.4704675540329499,0.8629089069134299,0.6818122303452077,-0.0360114734833124,-0.0971284862223072,0.7906233155421142,0.7426448689924664,0.0053547467343971,-0.3492408991068225,0.6031399271739261,813.1135531135532,807.8754578754579,790.1465201465202,766.3736263736264,686.5934065934066,850.989010989011,0.05426,0.153809,0.98999,-8.598328,2.960815,15.820923,1.0,1.0,1.0,1.0,1.0,45.0,,1649753753.404
0.6620448646436259,0.1680543430414078,-0.192258954180911,0.8864540470229174,0.3508183784824235,0.1877529267452026,-0.187829361976034,0.1375585011185983,0.9944756235086464,0.5547921789306205,0.4704675540329499,0.8629089069134299,0.6818122303452077,-0.0360114734833124,-0.0971284862223072,0.7906233155421142,0.7426448689924664,0.0053547467343971,-0.3492408991068225,0.6031399271739261,794.1758241758242,796.996336996337,786.1172161172161,773.6263736263736,639.8534798534798,995.6410256410256,0.05426,0.153809,0.98999,-8.598328,2.960815,15.820923,1.0,1.0,1.0,1.0,1.0,45.0,,1649753753.404
0.6620448646436259,0.1680543430414078,-0.192258954180911,0.8864540470229174,0.3508183784824235,0.1877529267452026,-0.187829361976034,0.1375585011185983,0.9944756235086464,0.5547921789306205,0.4704675540329499,0.8629089069134299,0.6818122303452077,-0.0360114734833124,-0.0971284862223072,0.7906233155421142,0.7426448689924664,0.0053547467343971,-0.3492408991068225,0.6031399271739261,793.7728937728938,794.5787545787546,783.6996336996338,770.0,680.5494505494506,775.6410256410256,0.05426,0.153809,0.98999,-8.598328,2.960815,15.820923,1.0,1.0,1.0,1.0,1.0,45.0,,1649753753.405
0.6620448646436259,0.1680543430414078,-0.192258954180911,0.8864540470229174,0.3508183784824235,0.1877529267452026,-0.187829361976034,0.1375585011185983,0.9944756235086464,0.5547921789306205,0.4704675540329499,0.8629089069134299,0.6818122303452077,-0.0360114734833124,-0.0971284862223072,0.7906233155421142,0.7426448689924664,0.0053547467343971,-0.3492408991068225,0.6031399271739261,798.6080586080586,803.040293040293,785.3113553113553,776.8498168498169,716.8131868131868,637.4358974358975,0.05426,0.153809,0.98999,-8.598328,2.960815,15.820923,1.0,1.0,1.0,1.0,1.0,45.0,,1649753753.405
0.6620448646436259,0.1680543430414078,-0.192258954180911,0.8864540470229174,0.3508183784824235,0.1877529267452026,-0.187829361976034,0.1375585011185983,0.9944756235086464,0.5547921789306205,0.4704675540329499,0.8629089069134299,0.6818122303452077,-0.0360114734833124,-0.0971284862223072,0.7906233155421142,0.7426448689924664,0.0053547467343971,-0.3492408991068225,0.6031399271739261,797.8021978021978,804.2490842490843,787.3260073260074,786.9230769230769,813.919413919414,720.8424908424909,0.05426,0.153809,0.98999,-8.598328,2.960815,15.820923,1.0,1.0,1.0,1.0,1.0,45.0,,1649753753.405
0.6620448646436259,0.1680543430414078,-0.192258954180911,0.8864540470229174,0.3508183784824235,0.1877529267452026,-0.187829361976034,0.1375585011185983,0.9944756235086464,0.5547921789306205,0.4704675540329499,0.8629089069134299,0.6818122303452077,-0.0360114734833124,-0.0971284862223072,0.7906233155421142,0.7426448689924664,0.0053547467343971,-0.3492408991068225,0.6031399271739261,799.4139194139194,800.2197802197802,790.1465201465202,783.6996336996338,898.9377289377289,701.5018315018315,0.05426,0.153809,0.98999,-8.598328,2.960815,15.820923,1.0,1.0,1.0,1.0,1.0,45.0,,1649753753.406
0.6620448646436259,0.1680543430414078,-0.192258954180911,0.8864540470229174,0.3508183784824235,0.1877529267452026,-0.187829361976034,0.1375585011185983,0.9944756235086464,0.5547921789306205,0.4704675540329499,0.8629089069134299,0.6818122303452077,-0.0360114734833124,-0.0971284862223072,0.7906233155421142,0.7426448689924664,0.0053547467343971,-0.3492408991068225,0.6031399271739261,793.7728937728938,801.4285714285714,788.9377289377289,773.6263736263736,853.4065934065934,688.2051282051282,0.05426,0.153809,0.98999,-8.598328,2.960815,15.820923,1.0,1.0,1.0,1.0,1.0,45.0,,1649753753.406
0.6620448646436259,0.1680543430414078,-0.192258954180911,0.8864540470229174,0.3508183784824235,0.1877529267452026,-0.187829361976034,0.1375585011185983,0.9944756235086464,0.5547921789306205,0.4704675540329499,0.8629089069134299,0.6818122303452077,-0.0360114734833124,-0.0971284862223072,0.7906233155421142,0.7426448689924664,0.0053547467343971,-0.3492408991068225,0.6031399271739261,800.6227106227107,803.040293040293,784.5054945054945,764.3589743589744,784.9084249084249,706.7399267399268,0.05426,0.153809,0.98999,-8.598328,2.960815,15.820923,1.0,1.0,1.0,1.0,1.0,45.0,,1649753753.449
0.701616369251862,0.153960023162356,-0.155063408026481,0.8234819596253734,0.3662632309817517,0.1788256485946624,-0.1788664522578596,0.1140803665327075,0.9315688657594928,0.5175582897513357,0.4704675540329499,0.8432683341169245,0.6827232205050002,-0.0227370300932515,-0.0999081508426442,0.807621719430324,0.7551676574147117,-0.021332668652288,-0.3404570860022023,0.6113999027631061,801.4285714285714,799.4139194139194,787.7289377289378,755.8974358974359,780.0732600732601,663.2234432234433,0.05426,0.153809,0.98999,-8.598328,2.960815,15.820923,1.0,1.0,1.0,1.0,1.0,45.0,,1649753753.45
0.701616369251862,0.153960023162356,-0.155063408026481,0.8234819596253734,0.3662632309817517,0.1788256485946624,-0.1788664522578596,0.1140803665327075,0.9315688657594928,0.5175582897513357,0.4704675540329499,0.8432683341169245,0.6827232205050002,-0.0227370300932515,-0.0999081508426442,0.807621719430324,0.7551676574147117,-0.021332668652288,-0.3404570860022023,0.6113999027631061,789.3406593406594,799.8168498168499,794.5787545787546,767.985347985348,810.2930402930403,590.6959706959707,0.05426,0.153809,0.98999,-8.598328,2.960815,15.820923,1.0,1.0,1.0,1.0,1.0,45.0,,1649753753.451
0.701616369251862,0.153960023162356,-0.155063408026481,0.8234819596253734,0.3662632309817517,0.1788256485946624,-0.1788664522578596,0.1140803665327075,0.9315688657594928,0.5175582897513357,0.4704675540329499,0.8432683341169245,0.6827232205050002,-0.0227370300932515,-0.0999081508426442,0.807621719430324,0.7551676574147117,-0.021332668652288,-0.3404570860022023,0.6113999027631061,806.2637362637363,805.054945054945,798.2051282051282,781.6849816849817,747.4358974358975,806.6666666666667,0.05426,0.153809,0.98999,-8.598328,2.960815,15.820923,1.0,1.0,1.0,1.0,1.0,45.0,,1649753753.452
0.701616369251862,0.153960023162356,-0.155063408026481,0.8234819596253734,0.3662632309817517,0.1788256485946624,-0.1788664522578596,0.1140803665327075,0.9315688657594928,0.5175582897513357,0.4704675540329499,0.8432683341169245,0.6827232205050002,-0.0227370300932515,-0.0999081508426442,0.807621719430324,0.7551676574147117,-0.021332668652288,-0.3404570860022023,0.6113999027631061,807.0695970695971,801.8315018315019,794.5787545787546,771.6117216117216,739.7802197802198,810.2930402930403,0.05426,0.153809,0.98999,-8.598328,2.960815,15.820923,1.0,1.0,1.0,1.0,1.0,45.0,,1649753753.452
0.701616369251862,0.153960023162356,-0.155063408026481,0.8234819596253734,0.3662632309817517,0.1788256485946624,-0.1788664522578596,0.1140803665327075,0.9315688657594928,0.5175582897513357,0.4704675540329499,0.8432683341169245,0.6827232205050002,-0.0227370300932515,-0.0999081508426442,0.807621719430324,0.7551676574147117,-0.021332668652288,-0.3404570860022023,0.6113999027631061,788.5347985347986,799.4139194139194,790.952380952381,773.2234432234433,778.4615384615385,991.6117216117216,0.05426,0.153809,0.98999,-8.598328,2.960815,15.820923,1.0,1.0,1.0,1.0,1.0,45.0,,1649753753.452
0.701616369251862,0.153960023162356,-0.155063408026481,0.8234819596253734,0.3662632309817517,0.1788256485946624,-0.1788664522578596,0.1140803665327075,0.9315688657594928,0.5175582897513357,0.4704675540329499,0.8432683341169245,0.6827232205050002,-0.0227370300932515,-0.0999081508426442,0.807621719430324,0.7551676574147117,-0.021332668652288,-0.3404570860022023,0.6113999027631061,791.3553113553114,800.6227106227107,793.7728937728938,791.7582417582418,733.3333333333334,1146.739926739927,0.05426,0.153809,0.98999,-8.598328,2.960815,15.820923,1.0,1.0,1.0,1.0,1.0,45.0,,1649753753.453
0.701616369251862,0.153960023162356,-0.155063408026481,0.8234819596253734,0.3662632309817517,0.1788256485946624,-0.1788664522578596,0.1140803665327075,0.9315688657594928,0.5175582897513357,0.4704675540329499,0.8432683341169245,0.6827232205050002,-0.0227370300932515,-0.0999081508426442,0.807621719430324,0.7551676574147117,-0.021332668652288,-0.3404570860022023,0.6113999027631061,777.6556776556777,802.2344322344322,794.5787545787546,781.6849816849817,755.8974358974359,819.5604395604396,0.05426,0.153809,0.98999,-8.598328,2.960815,15.820923,1.0,1.0,1.0,1.0,1.0,45.0,,1649753753.453
0.701616369251862,0.153960023162356,-0.155063408026481,0.8234819596253734,0.3662632309817517,0.1788256485946624,-0.1788664522578596,0.1140803665327075,0.9315688657594928,0.5175582897513357,0.4704675540329499,0.8432683341169245,0.6827232205050002,-0.0227370300932515,-0.0999081508426442,0.807621719430324,0.7551676574147117,-0.021332668652288,-0.3404570860022023,0.6113999027631061,770.0,807.4725274725275,788.5347985347986,773.6263736263736,793.3699633699634,715.6043956043957,0.05426,0.153809,0.98999,-8.598328,2.960815,15.820923,1.0,1.0,1.0,1.0,1.0,45.0,,1649753753.453
0.701616369251862,0.153960023162356,-0.155063408026481,0.8234819596253734,0.3662632309817517,0.1788256485946624,-0.1788664522578596,0.1140803665327075,0.9315688657594928,0.5175582897513357,0.4704675540329499,0.8432683341169245,0.6827232205050002,-0.0227370300932515,-0.0999081508426442,0.807621719430324,0.7551676574147117,-0.021332668652288,-0.3404570860022023,0.6113999027631061,791.3553113553114,802.6373626373627,778.4615384615385,788.5347985347986,829.6336996336996,720.4395604395604,0.05426,0.153809,0.98999,-8.598328,2.960815,15.820923,1.0,1.0,1.0,1.0,1.0,45.0,,1649753753.454
0.701616369251862,0.153960023162356,-0.155063408026481,0.8234819596253734,0.3662632309817517,0.1788256485946624,-0.1788664522578596,0.1140803665327075,0.9315688657594928,0.5175582897513357,0.4704675540329499,0.8432683341169245,0.6827232205050002,-0.0227370300932515,-0.0999081508426442,0.807621719430324,0.7551676574147117,-0.021332668652288,-0.3404570860022023,0.6113999027631061,808.2783882783883,797.3992673992674,782.0879120879121,791.7582417582418,904.5787545787546,671.2820512820513,0.05426,0.153809,0.98999,-8.598328,2.960815,15.820923,1.0,1.0,1.0,1.0,1.0,45.0,,1649753753.454
0.701616369251862,0.153960023162356,-0.155063408026481,0.8234819596253734,0.3662632309817517,0.1788256485946624,-0.1788664522578596,0.1140803665327075,0.9315688657594928,0.5175582897513357,0.4704675540329499,0.8432683341169245,0.6827232205050002,-0.0227370300932515,-0.0999081508426442,0.807621719430324,0.7551676574147117,-0.021332668652288,-0.3404570860022023,0.6113999027631061,794.981684981685,804.2490842490843,792.1611721611722,764.7619047619048,918.6813186813188,989.5970695970695,0.05426,0.153809,0.98999,-8.598328,2.960815,15.820923,1.0,1.0,1.0,1.0,1.0,45.0,,1649753753.455
0.701616369251862,0.153960023162356,-0.155063408026481,0.8234819596253734,0.3662632309817517,0.1788256485946624,-0.1788664522578596,0.1140803665327075,0.9315688657594928,0.5175582897513357,0.4704675540329499,0.8432683341169245,0.6827232205050002,-0.0227370300932515,-0.0999081508426442,0.807621719430324,0.7551676574147117,-0.021332668652288,-0.3404570860022023,0.6113999027631061,765.9706959706959,801.4285714285714,795.3846153846154,750.6593406593407,943.2600732600732,1035.128205128205,0.050049,0.138794,0.993408,-9.517975,3.715973,17.95929,1.0,1.0,1.0,1.0,1.0,45.0,,1649753753.498
0.701616369251862,0.153960023162356,-0.155063408026481,0.8234819596253734,0.3662632309817517,0.1788256485946624,-0.1788664522578596,0.1140803665327075,0.9315688657594928,0.5175582897513357,0.4704675540329499,0.8432683341169245,0.6827232205050002,-0.0227370300932515,-0.0999081508426442,0.807621719430324,0.7551676574147117,-0.021332668652288,-0.3404570860022023,0.6113999027631061,776.4468864468864,794.1758241758242,796.1904761904763,761.5384615384615,930.3663003663004,836.886446886447,0.050049,0.138794,0.993408,-9.517975,3.715973,17.95929,1.0,1.0,1.0,1.0,1.0,45.0,,1649753753.498
0.701616369251862,0.153960023162356,-0.155063408026481,0.8234819596253734,0.3662632309817517,0.1788256485946624,-0.1788664522578596,0.1140803665327075,0.9315688657594928,0.5175582897513357,0.4704675540329499,0.8432683341169245,0.6827232205050002,-0.0227370300932515,-0.0999081508426442,0.807621719430324,0.7551676574147117,-0.021332668652288,-0.3404570860022023,0.6113999027631061,768.7912087912088,790.952380952381,792.967032967033,755.4945054945055,938.4249084249084,691.4285714285714,0.050049,0.138794,0.993408,-9.517975,3.715973,17.95929,1.0,1.0,1.0,1.0,1.0,45.0,,1649753753.499
0.701616369251862,0.153960023162356,-0.155063408026481,0.8234819596253734,0.3662632309817517,0.1788256485946624,-0.1788664522578596,0.1140803665327075,0.9315688657594928,0.5175582897513357,0.4704675540329499,0.8432683341169245,0.6827232205050002,-0.0227370300932515,-0.0999081508426442,0.807621719430324,0.7551676574147117,-0.021332668652288,-0.3404570860022023,0.6113999027631061,758.3150183150184,792.967032967033,789.7435897435897,747.8388278388279,894.1025641025641,660.4029304029305,0.050049,0.138794,0.993408,-9.517975,3.715973,17.95929,1.0,1.0,1.0,1.0,1.0,45.0,,1649753753.499
0.701616369251862,0.153960023162356,-0.155063408026481,0.8234819596253734,0.3662632309817517,0.1788256485946624,-0.1788664522578596,0.1140803665327075,0.9315688657594928,0.5175582897513357,0.4704675540329499,0.8432683341169245,0.6827232205050002,-0.0227370300932515,-0.0999081508426442,0.807621719430324,0.7551676574147117,-0.021332668652288,-0.3404570860022023,0.6113999027631061,782.4908424908425,794.981684981685,784.9084249084249,761.941391941392,842.9304029304029,790.5494505494506,0.050049,0.138794,0.993408,-9.517975,3.715973,17.95929,1.0,1.0,1.0,1.0,1.0,45.0,,1649753753.5
0.701616369251862,0.153960023162356,-0.155063408026481,0.8234819596253734,0.3662632309817517,0.1788256485946624,-0.1788664522578596,0.1140803665327075,0.9315688657594928,0.5175582897513357,0.4704675540329499,0.8432683341169245,0.6827232205050002,-0.0227370300932515,-0.0999081508426442,0.807621719430324,0.7551676574147117,-0.021332668652288,-0.3404570860022023,0.6113999027631061,777.6556776556777,794.1758241758242,786.5201465201466,761.5384615384615,831.6483516483516,995.6410256410256,0.050049,0.138794,0.993408,-9.517975,3.715973,17.95929,1.0,1.0,1.0,1.0,1.0,45.0,,1649753753.5
0.701616369251862,0.153960023162356,-0.155063408026481,0.8234819596253734,0.3662632309817517,0.1788256485946624,-0.1788664522578596,0.1140803665327075,0.9315688657594928,0.5175582897513357,0.4704675540329499,0.8432683341169245,0.6827232205050002,-0.0227370300932515,-0.0999081508426442,0.807621719430324,0.7551676574147117,-0.021332668652288,-0.3404570860022023,0.6113999027631061,770.0,795.7875457875458,788.5347985347986,755.4945054945055,733.7362637362637,890.8791208791209,0.050049,0.138794,0.993408,-9.517975,3.715973,17.95929,1.0,1.0,1.0,1.0,1.0,45.0,,1649753753.5
0.701616369251862,0.153960023162356,-0.155063408026481,0.8234819596253734,0.3662632309817517,0.1788256485946624,-0.1788664522578596,0.1140803665327075,0.9315688657594928,0.5175582897513357,0.4704675540329499,0.8432683341169245,0.6827232205050002,-0.0227370300932515,-0.0999081508426442,0.807621719430324,0.7551676574147117,-0.021332668652288,-0.3404570860022023,0.6113999027631061,764.7619047619048,794.1758241758242,787.7289377289378,746.2271062271062,662.8205128205128,859.4505494505495,0.050049,0.138794,0.993408,-9.517975,3.715973,17.95929,1.0,1.0,1.0,1.0,1.0,45.0,,1649753753.501
0.701616369251862,0.153960023162356,-0.155063408026481,0.8234819596253734,0.3662632309817517,0.1788256485946624,-0.1788664522578596,0.1140803665327075,0.9315688657594928,0.5175582897513357,0.4704675540329499,0.8432683341169245,0.6827232205050002,-0.0227370300932515,-0.0999081508426442,0.807621719430324,0.7551676574147117,-0.021332668652288,-0.3404570860022023,0.6113999027631061,754.2857142857143,792.1611721611722,789.7435897435897,750.6593406593407,624.945054945055,699.0842490842491,0.050049,0.138794,0.993408,-9.517975,3.715973,17.95929,1.0,1.0,1.0,1.0,1.0,45.0,,1649753753.501
0.701616369251862,0.153960023162356,-0.155063408026481,0.8234819596253734,0.3662632309817517,0.1788256485946624,-0.1788664522578596,0.1140803665327075,0.9315688657594928,0.5175582897513357,0.4704675540329499,0.8432683341169245,0.6827232205050002,-0.0227370300932515,-0.0999081508426442,0.807621719430324,0.7551676574147117,-0.021332668652288,-0.3404570860022023,0.6113999027631061,776.4468864468864,791.3553113553114,791.3553113553114,771.2087912087912,681.7582417582418,542.7472527472528,0.050049,0.138794,0.993408,-9.517975,3.715973,17.95929,1.0,1.0,1.0,1.0,1.0,45.0,,1649753753.501
0.701616369251862,0.153960023162356,-0.155063408026481,0.8234819596253734,0.3662632309817517,0.1788256485946624,-0.1788664522578596,0.1140803665327075,0.9315688657594928,0.5175582897513357,0.4704675540329499,0.8432683341169245,0.6827232205050002,-0.0227370300932515,-0.0999081508426442,0.807621719430324,0.7551676574147117,-0.021332668652288,-0.3404570860022023,0.6113999027631061,783.6996336996338,793.7728937728938,792.5641025641025,772.8205128205128,738.5714285714286,481.0989010989011,0.050049,0.138794,0.993408,-9.517975,3.715973,17.95929,1.0,1.0,1.0,1.0,1.0,45.0,,1649753753.502
0.701616369251862,0.153960023162356,-0.155063408026481,0.8234819596253734,0.3662632309817517,0.1788256485946624,-0.1788664522578596,0.1140803665327075,0.9315688657594928,0.5175582897513357,0.4704675540329499,0.8432683341169245,0.6827232205050002,-0.0227370300932515,-0.0999081508426442,0.807621719430324,0.7551676574147117,-0.021332668652288,-0.3404570860022023,0.6113999027631061,776.4468864468864,794.5787545787546,795.7875457875458,780.4761904761905,784.9084249084249,594.7252747252747,0.050049,0.138794,0.993408,-9.517975,3.715973,17.95929,1.0,1.0,1.0,1.0,1.0,45.0,,1649753753.502
0.701616369251862,0.153960023162356,-0.155063408026481,0.8234819596253734,0.3662632309817517,0.1788256485946624,-0.1788664522578596,0.1140803665327075,0.9315688657594928,0.5175582897513357,0.4704675540329499,0.8432683341169245,0.6827232205050002,-0.0227370300932515,-0.0999081508426442,0.807621719430324,0.7551676574147117,-0.021332668652288,-0.3404570860022023,0.6113999027631061,805.4578754578755,796.1904761904763,798.2051282051282,788.1318681318681,751.8681318681319,682.1611721611722,0.051758,0.132812,0.998535,-8.889923,4.022522,20.045319,1.0,1.0,1.0,1.0,1.0,45.0,,1649753753.546
0.701616369251862,0.153960023162356,-0.155063408026481,0.8234819596253734,0.3662632309817517,0.1788256485946624,-0.1788664522578596,0.1140803665327075,0.9315688657594928,0.5175582897513357,0.4704675540329499,0.8432683341169245,0.6827232205050002,-0.0227370300932515,-0.0999081508426442,0.807621719430324,0.7551676574147117,-0.021332668652288,-0.3404570860022023,0.6113999027631061,801.8315018315019,798.2051282051282,796.1904761904763,791.3553113553114,699.8901098901099,572.5641025641025,0.051758,0.132812,0.998535,-8.889923,4.022522,20.045319,1.0,1.0,1.0,1.0,1.0,45.0,,1649753753.547
0.701616369251862,0.153960023162356,-0.155063408026481,0.8234819596253734,0.3662632309817517,0.1788256485946624,-0.1788664522578596,0.1140803665327075,0.9315688657594928,0.5175582897513357,0.4704675540329499,0.8432683341169245,0.6827232205050002,-0.0227370300932515,-0.0999081508426442,0.807621719430324,0.7551676574147117,-0.021332668652288,-0.3404570860022023,0.6113999027631061,771.2087912087912,797.3992673992674,792.967032967033,789.3406593406594,780.4761904761905,545.1648351648352,0.051758,0.132812,0.998535,-8.889923,4.022522,20.045319,1.0,1.0,1.0,1.0,1.0,45.0,,1649753753.547
0.7201276629173552,0.1374031572139683,-0.1249581664302732,0.7353260639977098,0.3866334297893579,0.1512544387619399,-0.1752492967179057,0.0772476336001798,0.9098809768538364,0.4517756909837267,0.4704675540329499,0.8095804846576004,0.6860861325794234,-0.0105561063253693,-0.1016863537292956,0.817271813698877,0.768737828714582,-0.0743661462784218,-0.3326831712400722,0.6237473951954935,776.0439560439561,792.5641025641025,793.7728937728938,781.2820512820513,837.2893772893773,663.2234432234433,0.051758,0.132812,0.998535,-8.889923,4.022522,20.045319,1.0,1.0,1.0,1.0,1.0,45.0,,1649753753.547
0.7201276629173552,0.1374031572139683,-0.1249581664302732,0.7353260639977098,0.3866334297893579,0.1512544387619399,-0.1752492967179057,0.0772476336001798,0.9098809768538364,0.4517756909837267,0.4704675540329499,0.8095804846576004,0.6860861325794234,-0.0105561063253693,-0.1016863537292956,0.817271813698877,0.768737828714582,-0.0743661462784218,-0.3326831712400722,0.6237473951954935,796.1904761904763,796.996336996337,798.2051282051282,772.8205128205128,876.3736263736264,830.0366300366301,0.051758,0.132812,0.998535,-8.889923,4.022522,20.045319,1.0,1.0,1.0,1.0,1.0,45.0,,1649753753.548
0.7201276629173552,0.1374031572139683,-0.1249581664302732,0.7353260639977098,0.3866334297893579,0.1512544387619399,-0.1752492967179057,0.0772476336001798,0.9098809768538364,0.4517756909837267,0.4704675540329499,0.8095804846576004,0.6860861325794234,-0.0105561063253693,-0.1016863537292956,0.817271813698877,0.768737828714582,-0.0743661462784218,-0.3326831712400722,0.6237473951954935,803.4432234432235,804.2490842490843,794.1758241758242,770.8058608058608,891.2820512820513,1134.249084249084,0.051758,0.132812,0.998535,-8.889923,4.022522,20.045319,1.0,1.0,1.0,1.0,1.0,45.0,,1649753753.549
0.7201276629173552,0.1374031572139683,-0.1249581664302732,0.7353260639977098,0.3866334297893579,0.1512544387619399,-0.1752492967179057,0.0772476336001798,0.9098809768538364,0.4517756909837267,0.4704675540329499,0.8095804846576004,0.6860861325794234,-0.0105561063253693,-0.1016863537292956,0.817271813698877,0.768737828714582,-0.0743661462784218,-0.3326831712400722,0.6237473951954935,795.7875457875458,803.4432234432235,792.1611721611722,778.8644688644689,790.1465201465202,1147.545787545788,0.051758,0.132812,0.998535,-8.889923,4.022522,20.045319,1.0,1.0,1.0,1.0,1.0,45.0,,1649753753.549
0.7201276629173552,0.1374031572139683,-0.1249581664302732,0.7353260639977098,0.3866334297893579,0.1512544387619399,-0.1752492967179057,0.0772476336001798,0.9098809768538364,0.4517756909837267,0.4704675540329499,0.8095804846576004,0.6860861325794234,-0.0105561063253693,-0.1016863537292956,0.817271813698877,0.768737828714582,-0.0743661462784218,-0.3326831712400722,0.6237473951954935,788.1318681318681,798.2051282051282,792.1611721611722,790.1465201465202,771.6117216117216,949.3040293040292,0.051758,0.132812,0.998535,-8.889923,4.022522,20.045319,1.0,1.0,1.0,1.0,1.0,45.0,,1649753753.55
0.7201276629173552,0.1374031572139683,-0.1249581664302732,0.7353260639977098,0.3866334297893579,0.1512544387619399,-0.1752492967179057,0.0772476336001798,0.9098809768538364,0.4517756909837267,0.4704675540329499,0.8095804846576004,0.6860861325794234,-0.0105561063253693,-0.1016863537292956,0.817271813698877,0.768737828714582,-0.0743661462784218,-0.3326831712400722,0.6237473951954935,803.040293040293,798.6080586080586,792.5641025641025,774.8351648351648,844.945054945055,940.8424908424907,0.051758,0.132812,0.998535,-8.889923,4.022522,20.045319,1.0,1.0,1.0,1.0,1.0,45.0,,1649753753.55
0.7201276629173552,0.1374031572139683,-0.1249581664302732,0.7353260639977098,0.3866334297893579,0.1512544387619399,-0.1752492967179057,0.0772476336001798,0.9098809768538364,0.4517756909837267,0.4704675540329499,0.8095804846576004,0.6860861325794234,-0.0105561063253693,-0.1016863537292956,0.817271813698877,0.768737828714582,-0.0743661462784218,-0.3326831712400722,0.6237473951954935,797.3992673992674,794.5787545787546,793.3699633699634,763.956043956044,826.4102564102565,761.941391941392,0.051758,0.132812,0.998535,-8.889923,4.022522,20.045319,1.0,1.0,1.0,1.0,1.0,45.0,,1649753753.55
0.7201276629173552,0.1374031572139683,-0.1249581664302732,0.7353260639977098,0.3866334297893579,0.1512544387619399,-0.1752492967179057,0.0772476336001798,0.9098809768538364,0.4517756909837267,0.4704675540329499,0.8095804846576004,0.6860861325794234,-0.0105561063253693,-0.1016863537292956,0.817271813698877,0.768737828714582,-0.0743661462784218,-0.3326831712400722,0.6237473951954935,790.952380952381,794.1758241758242,792.1611721611722,764.3589743589744,811.0989010989011,580.2197802197802,0.051758,0.132812,0.998535,-8.889923,4.022522,20.045319,1.0,1.0,1.0,1.0,1.0,45.0,,1649753753.551
0.7201276629173552,0.1374031572139683,-0.1249581664302732,0.7353260639977098,0.3866334297893579,0.1512544387619399,-0.1752492967179057,0.0772476336001798,0.9098809768538364,0.4517756909837267,0.4704675540329499,0.8095804846576004,0.6860861325794234,-0.0105561063253693,-0.1016863537292956,0.817271813698877,0.768737828714582,-0.0743661462784218,-0.3326831712400722,0.6237473951954935,798.6080586080586,800.6227106227107,793.3699633699634,758.7179487179487,785.3113553113553,857.032967032967,0.051758,0.132812,0.998535,-8.889923,4.022522,20.045319,1.0,1.0,1.0,1.0,1.0,45.0,,1649753753.551
0.7201276629173552,0.1374031572139683,-0.1249581664302732,0.7353260639977098,0.3866334297893579,0.1512544387619399,-0.1752492967179057,0.0772476336001798,0.9098809768538364,0.4517756909837267,0.4704675540329499,0.8095804846576004,0.6860861325794234,-0.0105561063253693,-0.1016863537292956,0.817271813698877,0.768737828714582,-0.0743661462784218,-0.3326831712400722,0.6237473951954935,798.2051282051282,799.4139194139194,789.7435897435897,765.1648351648352,740.1831501831502,823.992673992674,0.050354,0.107788,0.994812,-10.377808,6.123505,21.480865,1.0,1.0,1.0,1.0,1.0,45.0,,1649753753.594
0.7201276629173552,0.1374031572139683,-0.1249581664302732,0.7353260639977098,0.3866334297893579,0.1512544387619399,-0.1752492967179057,0.0772476336001798,0.9098809768538364,0.4517756909837267,0.4704675540329499,0.8095804846576004,0.6860861325794234,-0.0105561063253693,-0.1016863537292956,0.817271813698877,0.768737828714582,-0.0743661462784218,-0.3326831712400722,0.6237473951954935,796.1904761904763,799.8168498168499,786.5201465201466,754.2857142857143,744.6153846153846,601.5750915750916,0.050354,0.107788,0.994812,-10.377808,6.123505,21.480865,1.0,1.0,1.0,1.0,1.0,45.0,,1649753753.595
0.7201276629173552,0.1374031572139683,-0.1249581664302732,0.7353260639977098,0.3866334297893579,0.1512544387619399,-0.1752492967179057,0.0772476336001798,0.9098809768538364,0.4517756909837267,0.4704675540329499,0.8095804846576004,0.6860861325794234,-0.0105561063253693,-0.1016863537292956,0.817271813698877,0.768737828714582,-0.0743661462784218,-0.3326831712400722,0.6237473951954935,803.040293040293,801.8315018315019,792.5641025641025,762.7472527472528,742.1978021978023,553.6263736263736,0.050354,0.107788,0.994812,-10.377808,6.123505,21.480865,1.0,1.0,1.0,1.0,1.0,45.0,,1649753753.595
0.7201276629173552,0.1374031572139683,-0.1249581664302732,0.7353260639977098,0.3866334297893579,0.1512544387619399,-0.1752492967179057,0.0772476336001798,0.9098809768538364,0.4517756909837267,0.4704675540329499,0.8095804846576004,0.6860861325794234,-0.0105561063253693,-0.1016863537292956,0.817271813698877,0.768737828714582,-0.0743661462784218,-0.3326831712400722,0.6237473951954935,810.6959706959707,800.6227106227107,791.3553113553114,768.7912087912088,716.8131868131868,575.7875457875458,0.050354,0.107788,0.994812,-10.377808,6.123505,21.480865,1.0,1.0,1.0,1.0,1.0,45.0,,1649753753.595
0.7201276629173552,0.1374031572139683,-0.1249581664302732,0.7353260639977098,0.3866334297893579,0.1512544387619399,-0.1752492967179057,0.0772476336001798,0.9098809768538364,0.4517756909837267,0.4704675540329499,0.8095804846576004,0.6860861325794234,-0.0105561063253693,-0.1016863537292956,0.817271813698877,0.768737828714582,-0.0743661462784218,-0.3326831712400722,0.6237473951954935,791.7582417582418,801.8315018315019,786.9230769230769,750.2564102564103,719.6336996336996,645.8974358974359,0.050354,0.107788,0.994812,-10.377808,6.123505,21.480865,1.0,1.0,1.0,1.0,1.0,45.0,,1649753753.596
0.7201276629173552,0.1374031572139683,-0.1249581664302732,0.7353260639977098,0.3866334297893579,0.1512544387619399,-0.1752492967179057,0.0772476336001798,0.9098809768538364,0.4517756909837267,0.4704675540329499,0.8095804846576004,0.6860861325794234,-0.0105561063253693,-0.1016863537292956,0.817271813698877,0.768737828714582,-0.0743661462784218,-0.3326831712400722,0.6237473951954935,794.5787545787546,807.0695970695971,789.3406593406594,769.5970695970697,769.5970695970697,928.7545787545788,0.050354,0.107788,0.994812,-10.377808,6.123505,21.480865,1.0,1.0,1.0,1.0,1.0,45.0,,1649753753.596
0.7201276629173552,0.1374031572139683,-0.1249581664302732,0.7353260639977098,0.3866334297893579,0.1512544387619399,-0.1752492967179057,0.0772476336001798,0.9098809768538364,0.4517756909837267,0.4704675540329499,0.8095804846576004,0.6860861325794234,-0.0105561063253693,-0.1016863537292956,0.817271813698877,0.768737828714582,-0.0743661462784218,-0.3326831712400722,0.6237473951954935,810.6959706959707,803.4432234432235,793.3699633699634,770.4029304029305,783.6996336996338,981.5384615384615,0.050354,0.107788,0.994812,-10.377808,6.123505,21.480865,1.0,1.0,1.0,1.0,1.0,45.0,,1649753753.596
0.7201276629173552,0.1374031572139683,-0.1249581664302732,0.7353260639977098,0.3866334297893579,0.1512544387619399,-0.1752492967179057,0.0772476336001798,0.9098809768538364,0.4517756909837267,0.4704675540329499,0.8095804846576004,0.6860861325794234,-0.0105561063253693,-0.1016863537292956,0.817271813698877,0.768737828714582,-0.0743661462784218,-0.3326831712400722,0.6237473951954935,796.1904761904763,799.8168498168499,794.1758241758242,768.3882783882784,817.5457875457876,952.9304029304028,0.050354,0.107788,0.994812,-10.377808,6.123505,21.480865,1.0,1.0,1.0,1.0,1.0,45.0,,1649753753.597
0.7201276629173552,0.1374031572139683,-0.1249581664302732,0.7353260639977098,0.3866334297893579,0.1512544387619399,-0.1752492967179057,0.0772476336001798,0.9098809768538364,0.4517756909837267,0.4704675540329499,0.8095804846576004,0.6860861325794234,-0.0105561063253693,-0.1016863537292956,0.817271813698877,0.768737828714582,-0.0743661462784218,-0.3326831712400722,0.6237473951954935,799.0109890109891,800.2197802197802,790.5494505494506,773.2234432234433,799.0109890109891,805.4578754578755,0.050354,0.107788,0.994812,-10.377808,6.123505,21.480865,1.0,1.0,1.0,1.0,1.0,45.0,,1649753753.597
0.7201276629173552,0.1374031572139683,-0.1249581664302732,0.7353260639977098,0.3866334297893579,0.1512544387619399,-0.1752492967179057,0.0772476336001798,0.9098809768538364,0.4517756909837267,0.4704675540329499,0.8095804846576004,0.6860861325794234,-0.0105561063253693,-0.1016863537292956,0.817271813698877,0.768737828714582,-0.0743661462784218,-0.3326831712400722,0.6237473951954935,799.8168498168499,798.6080586080586,786.9230769230769,748.6446886446887,743.4065934065934,643.4798534798535,0.050354,0.107788,0.994812,-10.377808,6.123505,21.480865,1.0,1.0,1.0,1.0,1.0,45.0,,1649753753.598
0.7201276629173552,0.1374031572139683,-0.1249581664302732,0.7353260639977098,0.3866334297893579,0.1512544387619399,-0.1752492967179057,0.0772476336001798,0.9098809768538364,0.4517756909837267,0.4704675540329499,0.8095804846576004,0.6860861325794234,-0.0105561063253693,-0.1016863537292956,0.817271813698877,0.768737828714582,-0.0743661462784218,-0.3326831712400722,0.6237473951954935,793.3699633699634,798.6080586080586,792.1611721611722,755.8974358974359,734.945054945055,682.967032967033,0.050354,0.107788,0.994812,-10.377808,6.123505,21.480865,1.0,1.0,1.0,1.0,1.0,45.0,,1649753753.598
0.7201276629173552,0.1374031572139683,-0.1249581664302732,0.7353260639977098,0.3866334297893579,0.1512544387619399,-0.1752492967179057,0.0772476336001798,0.9098809768538364,0.4517756909837267,0.4704675540329499,0.8095804846576004,0.6860861325794234,-0.0105561063253693,-0.1016863537292956,0.817271813698877,0.768737828714582,-0.0743661462784218,-0.3326831712400722,0.6237473951954935,805.054945054945,800.2197802197802,788.5347985347986,756.7032967032967,738.1684981684982,647.5091575091575,0.050354,0.107788,0.994812,-10.377808,6.123505,21.480865,1.0,1.0,1.0,1.0,1.0,45.0,,1649753753.598
0.7201276629173552,0.1374031572139683,-0.1249581664302732,0.7353260639977098,0.3866334297893579,0.1512544387619399,-0.1752492967179057,0.0772476336001798,0.9098809768538364,0.4517756909837267,0.4704675540329499,0.8095804846576004,0.6860861325794234,-0.0105561063253693,-0.1016863537292956,0.817271813698877,0.768737828714582,-0.0743661462784218,-0.3326831712400722,0.6237473951954935,801.025641025641,807.0695970695971,780.4761904761905,766.7765567765568,808.2783882783883,724.0659340659341,0.051331,0.104675,0.994507,-11.790924,6.332855,20.568695,1.0,1.0,1.0,1.0,1.0,45.0,,1649753753.642
0.7201276629173552,0.1374031572139683,-0.1249581664302732,0.7353260639977098,0.3866334297893579,0.1512544387619399,-0.1752492967179057,0.0772476336001798,0.9098809768538364,0.4517756909837267,0.4704675540329499,0.8095804846576004,0.6860861325794234,-0.0105561063253693,-0.1016863537292956,0.817271813698877,0.768737828714582,-0.0743661462784218,-0.3326831712400722,0.6237473951954935,784.1025641025641,808.6813186813187,788.5347985347986,778.0586080586081,910.2197802197802,802.6373626373627,0.051331,0.104675,0.994507,-11.790924,6.332855,20.568695,1.0,1.0,1.0,1.0,1.0,45.0,,1649753753.643
0.7201276629173552,0.1374031572139683,-0.1249581664302732,0.7353260639977098,0.3866334297893579,0.1512544387619399,-0.1752492967179057,0.0772476336001798,0.9098809768538364,0.4517756909837267,0.4704675540329499,0.8095804846576004,0.6860861325794234,-0.0105561063253693,-0.1016863537292956,0.817271813698877,0.768737828714582,-0.0743661462784218,-0.3326831712400722,0.6237473951954935,774.0293040293041,801.8315018315019,795.7875457875458,753.8827838827839,884.4322344322345,655.5677655677656,0.051331,0.104675,0.994507,-11.790924,6.332855,20.568695,1.0,1.0,1.0,1.0,1.0,45.0,,1649753753.643
0.7201276629173552,0.1374031572139683,-0.1249581664302732,0.7353260639977098,0.3866334297893579,0.1512544387619399,-0.1752492967179057,0.0772476336001798,0.9098809768538364,0.4517756909837267,0.4704675540329499,0.8095804846576004,0.6860861325794234,-0.0105561063253693,-0.1016863537292956,0.817271813698877,0.768737828714582,-0.0743661462784218,-0.3326831712400722,0.6237473951954935,761.5384615384615,803.040293040293,796.996336996337,749.047619047619,923.1135531135532,753.4798534798535,0.051331,0.104675,0.994507,-11.790924,6.332855,20.568695,1.0,1.0,1.0,1.0,1.0,45.0,,1649753753.644
0.7201276629173552,0.1374031572139683,-0.1249581664302732,0.7353260639977098,0.3866334297893579,0.1512544387619399,-0.1752492967179057,0.0772476336001798,0.9098809768538364,0.4517756909837267,0.4704675540329499,0.8095804846576004,0.6860861325794234,-0.0105561063253693,-0.1016863537292956,0.817271813698877,0.768737828714582,-0.0743661462784218,-0.3326831712400722,0.6237473951954935,754.6886446886447,803.040293040293,799.4139194139194,759.1208791208792,963.809523809524,880.8058608058608,0.051331,0.104675,0.994507,-11.790924,6.332855,20.568695,1.0,1.0,1.0,1.0,1.0,45.0,,1649753753.644
0.7401066143029789,0.1149286606451117,-0.1036661203178372,0.6556193171651075,0.3982601572655614,0.1109873738766539,-0.1753753780634144,0.0041677839954566,0.9098809768538364,0.4330761042045653,0.4705902885266826,0.7995499532519591,0.6883440245138553,-0.0017977340887367,-0.107168043197886,0.8243664509297738,0.7776444678898198,-0.1485509588176988,-0.324941172179447,0.6348032281922854,754.2857142857143,794.1758241758242,806.2637362637363,748.2417582417582,829.6336996336996,1015.787545787546,0.051331,0.104675,0.994507,-11.790924,6.332855,20.568695,1.0,1.0,1.0,1.0,1.0,45.0,,1649753753.644
0.7401066143029789,0.1149286606451117,-0.1036661203178372,0.6556193171651075,0.3982601572655614,0.1109873738766539,-0.1753753780634144,0.0041677839954566,0.9098809768538364,0.4330761042045653,0.4705902885266826,0.7995499532519591,0.6883440245138553,-0.0017977340887367,-0.107168043197886,0.8243664509297738,0.7776444678898198,-0.1485509588176988,-0.324941172179447,0.6348032281922854,744.2124542124542,794.5787545787546,803.8461538461539,730.9157509157509,766.7765567765568,976.3003663003664,0.051331,0.104675,0.994507,-11.790924,6.332855,20.568695,1.0,1.0,1.0,1.0,1.0,45.0,,1649753753.646
0.7401066143029789,0.1149286606451117,-0.1036661203178372,0.6556193171651075,0.3982601572655614,0.1109873738766539,-0.1753753780634144,0.0041677839954566,0.9098809768538364,0.4330761042045653,0.4705902885266826,0.7995499532519591,0.6883440245138553,-0.0017977340887367,-0.107168043197886,0.8243664509297738,0.7776444678898198,-0.1485509588176988,-0.324941172179447,0.6348032281922854,747.4358974358975,795.7875457875458,799.8168498168499,715.2014652014652,788.5347985347986,784.1025641025641,0.051331,0.104675,0.994507,-11.790924,6.332855,20.568695,1.0,1.0,1.0,1.0,1.0,45.0,,1649753753.646
0.7401066143029789,0.1149286606451117,-0.1036661203178372,0.6556193171651075,0.3982601572655614,0.1109873738766539,-0.1753753780634144,0.0041677839954566,0.9098809768538364,0.4330761042045653,0.4705902885266826,0.7995499532519591,0.6883440245138553,-0.0017977340887367,-0.107168043197886,0.8243664509297738,0.7776444678898198,-0.1485509588176988,-0.324941172179447,0.6348032281922854,745.0183150183151,788.1318681318681,801.025641025641,709.5604395604396,778.4615384615385,745.0183150183151,0.051331,0.104675,0.994507,-11.790924,6.332855,20.568695,1.0,1.0,1.0,1.0,1.0,45.0,,1649753753.646
0.7401066143029789,0.1149286606451117,-0.1036661203178372,0.6556193171651075,0.3982601572655614,0.1109873738766539,-0.1753753780634144,0.0041677839954566,0.9098809768538364,0.4330761042045653,0.4705902885266826,0.7995499532519591,0.6883440245138553,-0.0017977340887367,-0.107168043197886,0.8243664509297738,0.7776444678898198,-0.1485509588176988,-0.324941172179447,0.6348032281922854,730.9157509157509,788.1318681318681,803.040293040293,699.4871794871796,803.8461538461539,678.1318681318681,0.051331,0.104675,0.994507,-11.790924,6.332855,20.568695,1.0,1.0,1.0,1.0,1.0,45.0,,1649753753.647
0.7401066143029789,0.1149286606451117,-0.1036661203178372,0.6556193171651075,0.3982601572655614,0.1109873738766539,-0.1753753780634144,0.0041677839954566,0.9098809768538364,0.4330761042045653,0.4705902885266826,0.7995499532519591,0.6883440245138553,-0.0017977340887367,-0.107168043197886,0.8243664509297738,0.7776444678898198,-0.1485509588176988,-0.324941172179447,0.6348032281922854,732.1245421245421,788.9377289377289,803.040293040293,701.0989010989011,828.8278388278388,699.0842490842491,0.051331,0.104675,0.994507,-11.790924,6.332855,20.568695,1.0,1.0,1.0,1.0,1.0,45.0,,1649753753.647
0.7401066143029789,0.1149286606451117,-0.1036661203178372,0.6556193171651075,0.3982601572655614,0.1109873738766539,-0.1753753780634144,0.0041677839954566,0.9098809768538364,0.4330761042045653,0.4705902885266826,0.7995499532519591,0.6883440245138553,-0.0017977340887367,-0.107168043197886,0.8243664509297738,0.7776444678898198,-0.1485509588176988,-0.324941172179447,0.6348032281922854,726.4835164835165,790.1465201465202,805.8608058608058,697.8754578754579,826.007326007326,1021.428571428571,0.051331,0.104675,0.994507,-11.790924,6.332855,20.568695,1.0,1.0,1.0,1.0,1.0,45.0,,1649753753.647
0.7401066143029789,0.1149286606451117,-0.1036661203178372,0.6556193171651075,0.3982601572655614,0.1109873738766539,-0.1753753780634144,0.0041677839954566,0.9098809768538364,0.4330761042045653,0.4705902885266826,0.7995499532519591,0.6883440245138553,-0.0017977340887367,-0.107168043197886,0.8243664509297738,0.7776444678898198,-0.1485509588176988,-0.324941172179447,0.6348032281922854,707.948717948718,783.6996336996338,803.8461538461539,676.1172161172161,858.2417582417582,1117.326007326007,0.047119,0.094727,0.990479,-10.624542,5.802002,17.809753,1.0,1.0,1.0,1.0,1.0,45.0,,1649753753.69
0.7401066143029789,0.1149286606451117,-0.1036661203178372,0.6556193171651075,0.3982601572655614,0.1109873738766539,-0.1753753780634144,0.0041677839954566,0.9098809768538364,0.4330761042045653,0.4705902885266826,0.7995499532519591,0.6883440245138553,-0.0017977340887367,-0.107168043197886,0.8243664509297738,0.7776444678898198,-0.1485509588176988,-0.324941172179447,0.6348032281922854,693.8461538461538,775.2380952380953,797.8021978021978,668.0586080586081,919.89010989011,927.948717948718,0.047119,0.094727,0.990479,-10.624542,5.802002,17.809753,1.0,1.0,1.0,1.0,1.0,45.0,,1649753753.691
0.7401066143029789,0.1149286606451117,-0.1036661203178372,0.6556193171651075,0.3982601572655614,0.1109873738766539,-0.1753753780634144,0.0041677839954566,0.9098809768538364,0.4330761042045653,0.4705902885266826,0.7995499532519591,0.6883440245138553,-0.0017977340887367,-0.107168043197886,0.8243664509297738,0.7776444678898198,-0.1485509588176988,-0.324941172179447,0.6348032281922854,695.8608058608058,776.0439560439561,802.2344322344322,678.5347985347986,891.2820512820513,660.4029304029305,0.047119,0.094727,0.990479,-10.624542,5.802002,17.809753,1.0,1.0,1.0,1.0,1.0,45.0,,1649753753.691
0.7401066143029789,0.1149286606451117,-0.1036661203178372,0.6556193171651075,0.3982601572655614,0.1109873738766539,-0.1753753780634144,0.0041677839954566,0.9098809768538364,0.4330761042045653,0.4705902885266826,0.7995499532519591,0.6883440245138553,-0.0017977340887367,-0.107168043197886,0.8243664509297738,0.7776444678898198,-0.1485509588176988,-0.324941172179447,0.6348032281922854,685.7875457875458,774.8351648351648,801.8315018315019,674.1025641025641,822.3809523809524,671.6849816849817,0.047119,0.094727,0.990479,-10.624542,5.802002,17.809753,1.0,1.0,1.0,1.0,1.0,45.0,,1649753753.692
0.7401066143029789,0.1149286606451117,-0.1036661203178372,0.6556193171651075,0.3982601572655614,0.1109873738766539,-0.1753753780634144,0.0041677839954566,0.9098809768538364,0.4330761042045653,0.4705902885266826,0.7995499532519591,0.6883440245138553,-0.0017977340887367,-0.107168043197886,0.8243664509297738,0.7776444678898198,-0.1485509588176988,-0.324941172179447,0.6348032281922854,682.967032967033,774.8351648351648,796.996336996337,666.8498168498169,844.1391941391942,799.4139194139194,0.047119,0.094727,0.990479,-10.624542,5.802002,17.809753,1.0,1.0,1.0,1.0,1.0,45.0,,1649753753.692
0.7401066143029789,0.1149286606451117,-0.1036661203178372,0.6556193171651075,0.3982601572655614,0.1109873738766539,-0.1753753780634144,0.0041677839954566,0.9098809768538364,0.4330761042045653,0.4705902885266826,0.7995499532519591,0.6883440245138553,-0.0017977340887367,-0.107168043197886,0.8243664509297738,0.7776444678898198,-0.1485509588176988,-0.324941172179447,0.6348032281922854,680.1465201465202,777.6556776556777,798.6080586080586,659.1941391941392,794.5787545787546,978.7179487179488,0.047119,0.094727,0.990479,-10.624542,5.802002,17.809753,1.0,1.0,1.0,1.0,1.0,45.0,,1649753753.692
0.7401066143029789,0.1149286606451117,-0.1036661203178372,0.6556193171651075,0.3982601572655614,0.1109873738766539,-0.1753753780634144,0.0041677839954566,0.9098809768538364,0.4330761042045653,0.4705902885266826,0.7995499532519591,0.6883440245138553,-0.0017977340887367,-0.107168043197886,0.8243664509297738,0.7776444678898198,-0.1485509588176988,-0.324941172179447,0.6348032281922854,661.2087912087912,776.8498168498169,799.8168498168499,631.7948717948718,709.5604395604396,953.3333333333334,0.047119,0.094727,0.990479,-10.624542,5.802002,17.809753,1.0,1.0,1.0,1.0,1.0,45.0,,1649753753.693
0.7401066143029789,0.1149286606451117,-0.1036661203178372,0.6556193171651075,0.3982601572655614,0.1109873738766539,-0.1753753780634144,0.0041677839954566,0.9098809768538364,0.4330761042045653,0.4705902885266826,0.7995499532519591,0.6883440245138553,-0.0017977340887367,-0.107168043197886,0.8243664509297738,0.7776444678898198,-0.1485509588176988,-0.324941172179447,0.6348032281922854,659.5970695970697,774.0293040293041,800.2197802197802,627.7655677655678,765.9706959706959,780.8791208791209,0.047119,0.094727,0.990479,-10.624542,5.802002,17.809753,1.0,1.0,1.0,1.0,1.0,45.0,,1649753753.693
0.7401066143029789,0.1149286606451117,-0.1036661203178372,0.6556193171651075,0.3982601572655614,0.1109873738766539,-0.1753753780634144,0.0041677839954566,0.9098809768538364,0.4330761042045653,0.4705902885266826,0.7995499532519591,0.6883440245138553,-0.0017977340887367,-0.107168043197886,0.8243664509297738,0.7776444678898198,-0.1485509588176988,-0.324941172179447,0.6348032281922854,669.2673992673992,777.6556776556777,803.8461538461539,644.6886446886447,796.996336996337,720.0366300366301,0.047119,0.094727,0.990479,-10.624542,5.802002,17.809753,1.0,1.0,1.0,1.0,1.0,45.0,,1649753753.694
0.7401066143029789,0.1149286606451117,-0.1036661203178372,0.6556193171651075,0.3982601572655614,0.1109873738766539,-0.1753753780634144,0.0041677839954566,0.9098809768538364,0.4330761042045653,0.4705902885266826,0.7995499532519591,0.6883440245138553,-0.0017977340887367,-0.107168043197886,0.8243664509297738,0.7776444678898198,-0.1485509588176988,-0.324941172179447,0.6348032281922854,675.3113553113553,786.1172161172161,804.2490842490843,657.1794871794872,847.7655677655678,744.2124542124542,0.047119,0.094727,0.990479,-10.624542,5.802002,17.809753,1.0,1.0,1.0,1.0,1.0,45.0,,1649753753.694
0.7401066143029789,0.1149286606451117,-0.1036661203178372,0.6556193171651075,0.3982601572655614,0.1109873738766539,-0.1753753780634144,0.0041677839954566,0.9098809768538364,0.4330761042045653,0.4705902885266826,0.7995499532519591,0.6883440245138553,-0.0017977340887367,-0.107168043197886,0.8243664509297738,0.7776444678898198,-0.1485509588176988,-0.324941172179447,0.6348032281922854,670.8791208791209,780.8791208791209,799.0109890109891,651.941391941392,857.4358974358975,651.1355311355312,0.047119,0.094727,0.990479,-10.624542,5.802002,17.809753,1.0,1.0,1.0,1.0,1.0,45.0,,1649753753.694
0.7401066143029789,0.1149286606451117,-0.1036661203178372,0.6556193171651075,0.3982601572655614,0.1109873738766539,-0.1753753780634144,0.0041677839954566,0.9098809768538364,0.4330761042045653,0.4705902885266826,0.7995499532519591,0.6883440245138553,-0.0017977340887367,-0.107168043197886,0.8243664509297738,0.7776444678898198,-0.1485509588176988,-0.324941172179447,0.6348032281922854,671.2820512820513,776.0439560439561,798.6080586080586,636.2271062271062,781.6849816849817,622.9304029304029,0.047119,0.094727,0.990479,-10.624542,5.802002,17.809753,1.0,1.0,1.0,1.0,1.0,45.0,,1649753753.695
0.7401066143029789,0.1149286606451117,-0.1036661203178372,0.6556193171651075,0.3982601572655614,0.1109873738766539,-0.1753753780634144,0.0041677839954566,0.9098809768538364,0.4330761042045653,0.4705902885266826,0.7995499532519591,0.6883440245138553,-0.0017977340887367,-0.107168043197886,0.8243664509297738,0.7776444678898198,-0.1485509588176988,-0.324941172179447,0.6348032281922854,663.2234432234433,785.7142857142858,800.6227106227107,631.3919413919414,838.901098901099,761.5384615384615,0.049255,0.075928,0.992554,-7.566528,5.50293,13.196564,1.0,1.0,1.0,1.0,1.0,45.0,,1649753753.738
0.7401066143029789,0.1149286606451117,-0.1036661203178372,0.6556193171651075,0.3982601572655614,0.1109873738766539,-0.1753753780634144,0.0041677839954566,0.9098809768538364,0.4330761042045653,0.4705902885266826,0.7995499532519591,0.6883440245138553,-0.0017977340887367,-0.107168043197886,0.8243664509297738,0.7776444678898198,-0.1485509588176988,-0.324941172179447,0.6348032281922854,654.3589743589744,786.9230769230769,800.6227106227107,632.6007326007326,850.1831501831502,745.8241758241759,0.049255,0.075928,0.992554,-7.566528,5.50293,13.196564,1.0,1.0,1.0,1.0,1.0,45.0,,1649753753.739
0.7401066143029789,0.1149286606451117,-0.1036661203178372,0.6556193171651075,0.3982601572655614,0.1109873738766539,-0.1753753780634144,0.0041677839954566,0.9098809768538364,0.4330761042045653,0.4705902885266826,0.7995499532519591,0.6883440245138553,-0.0017977340887367,-0.107168043197886,0.8243664509297738,0.7776444678898198,-0.1485509588176988,-0.324941172179447,0.6348032281922854,658.7912087912088,788.1318681318681,798.6080586080586,633.8095238095239,826.8131868131868,681.7582417582418,0.049255,0.075928,0.992554,-7.566528,5.50293,13.196564,1.0,1.0,1.0,1.0,1.0,45.0,,1649753753.739
0.7401066143029789,0.1149286606451117,-0.1036661203178372,0.6556193171651075,0.3982601572655614,0.1109873738766539,-0.1753753780634144,0.0041677839954566,0.9098809768538364,0.4330761042045653,0.4705902885266826,0.7995499532519591,0.6883440245138553,-0.0017977340887367,-0.107168043197886,0.8243664509297738,0.7776444678898198,-0.1485509588176988,-0.324941172179447,0.6348032281922854,658.3882783882784,787.3260073260074,793.3699633699634,641.0622710622711,885.2380952380953,865.0915750915751,0.049255,0.075928,0.992554,-7.566528,5.50293,13.196564,1.0,1.0,1.0,1.0,1.0,45.0,,1649753753.74
0.7401066143029789,0.1149286606451117,-0.1036661203178372,0.6556193171651075,0.3982601572655614,0.1109873738766539,-0.1753753780634144,0.0041677839954566,0.9098809768538364,0.4330761042045653,0.4705902885266826,0.7995499532519591,0.6883440245138553,-0.0017977340887367,-0.107168043197886,0.8243664509297738,0.7776444678898198,-0.1485509588176988,-0.324941172179447,0.6348032281922854,662.8205128205128,783.6996336996338,791.3553113553114,644.2857142857143,905.3846153846154,877.1794871794872,0.049255,0.075928,0.992554,-7.566528,5.50293,13.196564,1.0,1.0,1.0,1.0,1.0,45.0,,1649753753.74
0.7401066143029789,0.1149286606451117,-0.1036661203178372,0.6556193171651075,0.3982601572655614,0.1109873738766539,-0.1753753780634144,0.0041677839954566,0.9098809768538364,0.4330761042045653,0.4705902885266826,0.7995499532519591,0.6883440245138553,-0.0017977340887367,-0.107168043197886,0.8243664509297738,0.7776444678898198,-0.1485509588176988,-0.324941172179447,0.6348032281922854,661.6117216117216,784.9084249084249,794.981684981685,638.2417582417582,833.6630036630037,985.1648351648352,0.049255,0.075928,0.992554,-7.566528,5.50293,13.196564,1.0,1.0,1.0,1.0,1.0,45.0,,1649753753.74
0.7401066143029789,0.1149286606451117,-0.1036661203178372,0.6556193171651075,0.3982601572655614,0.1109873738766539,-0.1753753780634144,0.0041677839954566,0.9098809768538364,0.4330761042045653,0.4705902885266826,0.7995499532519591,0.6883440245138553,-0.0017977340887367,-0.107168043197886,0.8243664509297738,0.7776444678898198,-0.1485509588176988,-0.324941172179447,0.6348032281922854,667.6556776556777,782.4908424908425,795.7875457875458,649.5238095238095,723.2600732600732,1025.457875457875,0.049255,0.075928,0.992554,-7.566528,5.50293,13.196564,1.0,1.0,1.0,1.0,1.0,45.0,,1649753753.741
0.7576482515557826,0.087880222597107,-0.0797386821137622,0.6048632202378954,0.3953542925118631,0.0701973516685715,-0.1797194904878387,-0.2213295996404747,0.9098809768538364,0.4233085537599996,0.4706470840139282,0.7995499532519591,0.6898654717456919,0.0047507687149209,-0.1154069310495474,0.8412944594767647,0.7806003447382641,-0.222743719396427,-0.3157156998444268,0.6472831269979953,673.2967032967033,780.4761904761905,798.2051282051282,649.5238095238095,680.5494505494506,763.956043956044,0.049255,0.075928,0.992554,-7.566528,5.50293,13.196564,1.0,1.0,1.0,1.0,1.0,45.0,,1649753753.741
0.7576482515557826,0.087880222597107,-0.0797386821137622,0.6048632202378954,0.3953542925118631,0.0701973516685715,-0.1797194904878387,-0.2213295996404747,0.9098809768538364,0.4233085537599996,0.4706470840139282,0.7995499532519591,0.6898654717456919,0.0047507687149209,-0.1154069310495474,0.8412944594767647,0.7806003447382641,-0.222743719396427,-0.3157156998444268,0.6472831269979953,667.2527472527473,783.6996336996338,798.2051282051282,650.7326007326008,659.1941391941392,624.1391941391942,0.049255,0.075928,0.992554,-7.566528,5.50293,13.196564,1.0,1.0,1.0,1.0,1.0,45.0,,1649753753.742
0.7576482515557826,0.087880222597107,-0.0797386821137622,0.6048632202378954,0.3953542925118631,0.0701973516685715,-0.1797194904878387,-0.2213295996404747,0.9098809768538364,0.4233085537599996,0.4706470840139282,0.7995499532519591,0.6898654717456919,0.0047507687149209,-0.1154069310495474,0.8412944594767647,0.7806003447382641,-0.222743719396427,-0.3157156998444268,0.6472831269979953,664.8351648351648,782.4908424908425,796.1904761904763,649.92673992674,707.948717948718,589.8901098901099,0.049255,0.075928,0.992554,-7.566528,5.50293,13.196564,1.0,1.0,1.0,1.0,1.0,45.0,,1649753753.743
0.7576482515557826,0.087880222597107,-0.0797386821137622,0.6048632202378954,0.3953542925118631,0.0701973516685715,-0.1797194904878387,-0.2213295996404747,0.9098809768538364,0.4233085537599996,0.4706470840139282,0.7995499532519591,0.6898654717456919,0.0047507687149209,-0.1154069310495474,0.8412944594767647,0.7806003447382641,-0.222743719396427,-0.3157156998444268,0.6472831269979953,662.4175824175825,776.8498168498169,797.3992673992674,644.6886446886447,724.4688644688645,567.3260073260074,0.049255,0.075928,0.992554,-7.566528,5.50293,13.196564,1.0,1.0,1.0,1.0,1.0,45.0,,1649753753.743
0.7576482515557826,0.087880222597107,-0.0797386821137622,0.6048632202378954,0.3953542925118631,0.0701973516685715,-0.1797194904878387,-0.2213295996404747,0.9098809768538364,0.4233085537599996,0.4706470840139282,0.7995499532519591,0.6898654717456919,0.0047507687149209,-0.1154069310495474,0.8412944594767647,0.7806003447382641,-0.222743719396427,-0.3157156998444268,0.6472831269979953,668.8644688644689,780.0732600732601,795.3846153846154,651.1355311355312,691.8315018315019,832.0512820512821,0.049255,0.075928,0.992554,-7.566528,5.50293,13.196564,1.0,1.0,1.0,1.0,1.0,45.0,,1649753753.743
