Delta_TP9,Delta_AF7,Delta_AF8,Delta_TP10,Theta_TP9,Theta_AF7,Theta_AF8,Theta_TP10,Alpha_TP9,Alpha_AF7,Alpha_AF8,Alpha_TP10,Beta_TP9,Beta_AF7,Beta_AF8,Beta_TP10,Gamma_TP9,Gamma_AF7,Gamma_AF8,Gamma_TP10,RAW_TP9,RAW_AF7,RAW_AF8,RAW_TP10,AUX_RIGHT,AUX_LEFT,Accelerometer_X,Accelerometer_Y,Accelerometer_Z,Gyro_X,Gyro_Y,Gyro_Z,HeadBandOn,HSI_TP9,HSI_AF7,HSI_AF8,HSI_TP10,Battery,Elements,time
0.8029855036229777,-0.0268481821290762,-0.0050254887926656,0.6703947945575499,0.2080428245971692,-0.0387279875107481,-0.3486304395229322,0.3229899845803765,0.6127721248173237,0.1842185645453687,8.29521498037431e-05,0.7035854332822006,0.7337599374828423,0.3398503152753391,-0.0973226113280326,0.7728854326258747,0.5481969324955625,0.1884637969651881,-0.4489516817888989,0.4666424919470717,793.3699633699634,796.5934065934066,793.7728937728938,808.2783882783883,882.4175824175825,758.3150183150184,0.062378,0.013489,0.993896,2.721558,1.413116,2.474823,1.0,1.0,1.0,1.0,1.0,90.0,,1660301735.806
0.8029855036229777,-0.0268481821290762,-0.0050254887926656,0.6703947945575499,0.2080428245971692,-0.0387279875107481,-0.3486304395229322,0.3229899845803765,0.6127721248173237,0.1842185645453687,8.29521498037431e-05,0.7035854332822006,0.7337599374828423,0.3398503152753391,-0.0973226113280326,0.7728854326258747,0.5481969324955625,0.1884637969651881,-0.4489516817888989,0.4666424919470717,805.054945054945,799.4139194139194,794.981684981685,822.7838827838829,945.6776556776556,853.8095238095239,0.062378,0.013489,0.993896,2.721558,1.413116,2.474823,1.0,1.0,1.0,1.0,1.0,90.0,,1660301735.807
0.8029855036229777,-0.0268481821290762,-0.0050254887926656,0.6703947945575499,0.2080428245971692,-0.0387279875107481,-0.3486304395229322,0.3229899845803765,0.6127721248173237,0.1842185645453687,8.29521498037431e-05,0.7035854332822006,0.7337599374828423,0.3398503152753391,-0.0973226113280326,0.7728854326258747,0.5481969324955625,0.1884637969651881,-0.4489516817888989,0.4666424919470717,805.8608058608058,798.2051282051282,799.8168498168499,811.0989010989011,919.89010989011,749.4505494505495,0.062378,0.013489,0.993896,2.721558,1.413116,2.474823,1.0,1.0,1.0,1.0,1.0,90.0,,1660301735.807
0.8029855036229777,-0.0268481821290762,-0.0050254887926656,0.6703947945575499,0.2080428245971692,-0.0387279875107481,-0.3486304395229322,0.3229899845803765,0.6127721248173237,0.1842185645453687,8.29521498037431e-05,0.7035854332822006,0.7337599374828423,0.3398503152753391,-0.0973226113280326,0.7728854326258747,0.5481969324955625,0.1884637969651881,-0.4489516817888989,0.4666424919470717,798.6080586080586,794.981684981685,799.4139194139194,800.2197802197802,813.919413919414,582.6373626373627,0.062378,0.013489,0.993896,2.721558,1.413116,2.474823,1.0,1.0,1.0,1.0,1.0,90.0,,1660301735.807
0.8029855036229777,-0.0268481821290762,-0.0050254887926656,0.6703947945575499,0.2080428245971692,-0.0387279875107481,-0.3486304395229322,0.3229899845803765,0.6127721248173237,0.1842185645453687,8.29521498037431e-05,0.7035854332822006,0.7337599374828423,0.3398503152753391,-0.0973226113280326,0.7728854326258747,0.5481969324955625,0.1884637969651881,-0.4489516817888989,0.4666424919470717,807.4725274725275,801.025641025641,800.2197802197802,802.6373626373627,806.2637362637363,917.875457875458,0.062378,0.013489,0.993896,2.721558,1.413116,2.474823,1.0,1.0,1.0,1.0,1.0,90.0,,1660301735.807
0.8029855036229777,-0.0268481821290762,-0.0050254887926656,0.6703947945575499,0.2080428245971692,-0.0387279875107481,-0.3486304395229322,0.3229899845803765,0.6127721248173237,0.1842185645453687,8.29521498037431e-05,0.7035854332822006,0.7337599374828423,0.3398503152753391,-0.0973226113280326,0.7728854326258747,0.5481969324955625,0.1884637969651881,-0.4489516817888989,0.4666424919470717,810.6959706959707,809.4871794871796,798.6080586080586,794.981684981685,875.5677655677656,1246.263736263736,0.062378,0.013489,0.993896,2.721558,1.413116,2.474823,1.0,1.0,1.0,1.0,1.0,90.0,,1660301735.808
0.8029855036229777,-0.0268481821290762,-0.0050254887926656,0.6703947945575499,0.2080428245971692,-0.0387279875107481,-0.3486304395229322,0.3229899845803765,0.6127721248173237,0.1842185645453687,8.29521498037431e-05,0.7035854332822006,0.7337599374828423,0.3398503152753391,-0.0973226113280326,0.7728854326258747,0.5481969324955625,0.1884637969651881,-0.4489516817888989,0.4666424919470717,801.025641025641,799.4139194139194,792.1611721611722,793.3699633699634,794.981684981685,1043.186813186813,0.062378,0.013489,0.993896,2.721558,1.413116,2.474823,1.0,1.0,1.0,1.0,1.0,90.0,,1660301735.808
0.8029855036229777,-0.0268481821290762,-0.0050254887926656,0.6703947945575499,0.2080428245971692,-0.0387279875107481,-0.3486304395229322,0.3229899845803765,0.6127721248173237,0.1842185645453687,8.29521498037431e-05,0.7035854332822006,0.7337599374828423,0.3398503152753391,-0.0973226113280326,0.7728854326258747,0.5481969324955625,0.1884637969651881,-0.4489516817888989,0.4666424919470717,790.1465201465202,790.1465201465202,793.3699633699634,792.967032967033,757.1062271062272,706.3369963369963,0.062378,0.013489,0.993896,2.721558,1.413116,2.474823,1.0,1.0,1.0,1.0,1.0,90.0,,1660301735.808
0.8029855036229777,-0.0268481821290762,-0.0050254887926656,0.6703947945575499,0.2080428245971692,-0.0387279875107481,-0.3486304395229322,0.3229899845803765,0.6127721248173237,0.1842185645453687,8.29521498037431e-05,0.7035854332822006,0.7337599374828423,0.3398503152753391,-0.0973226113280326,0.7728854326258747,0.5481969324955625,0.1884637969651881,-0.4489516817888989,0.4666424919470717,786.5201465201466,793.3699633699634,797.8021978021978,800.2197802197802,786.1172161172161,657.1794871794872,0.062378,0.013489,0.993896,2.721558,1.413116,2.474823,1.0,1.0,1.0,1.0,1.0,90.0,,1660301735.809
0.8029855036229777,-0.0268481821290762,-0.0050254887926656,0.6703947945575499,0.2080428245971692,-0.0387279875107481,-0.3486304395229322,0.3229899845803765,0.6127721248173237,0.1842185645453687,8.29521498037431e-05,0.7035854332822006,0.7337599374828423,0.3398503152753391,-0.0973226113280326,0.7728854326258747,0.5481969324955625,0.1884637969651881,-0.4489516817888989,0.4666424919470717,802.2344322344322,794.981684981685,797.8021978021978,803.8461538461539,780.8791208791209,701.5018315018315,0.062378,0.013489,0.993896,2.721558,1.413116,2.474823,1.0,1.0,1.0,1.0,1.0,90.0,,1660301735.809
0.8029855036229777,-0.0268481821290762,-0.0050254887926656,0.6703947945575499,0.2080428245971692,-0.0387279875107481,-0.3486304395229322,0.3229899845803765,0.6127721248173237,0.1842185645453687,8.29521498037431e-05,0.7035854332822006,0.7337599374828423,0.3398503152753391,-0.0973226113280326,0.7728854326258747,0.5481969324955625,0.1884637969651881,-0.4489516817888989,0.4666424919470717,793.3699633699634,788.9377289377289,794.5787545787546,799.0109890109891,800.6227106227107,627.7655677655678,0.062378,0.013489,0.993896,2.721558,1.413116,2.474823,1.0,1.0,1.0,1.0,1.0,90.0,,1660301735.809
0.8029855036229777,-0.0268481821290762,-0.0050254887926656,0.6703947945575499,0.2080428245971692,-0.0387279875107481,-0.3486304395229322,0.3229899845803765,0.6127721248173237,0.1842185645453687,8.29521498037431e-05,0.7035854332822006,0.7337599374828423,0.3398503152753391,-0.0973226113280326,0.7728854326258747,0.5481969324955625,0.1884637969651881,-0.4489516817888989,0.4666424919470717,781.6849816849817,789.3406593406594,794.981684981685,799.0109890109891,824.7985347985348,626.959706959707,0.062378,0.013489,0.993896,2.721558,1.413116,2.474823,1.0,1.0,1.0,1.0,1.0,90.0,,1660301735.809
0.8029855036229777,-0.0268481821290762,-0.0050254887926656,0.6703947945575499,0.2080428245971692,-0.0387279875107481,-0.3486304395229322,0.3229899845803765,0.6127721248173237,0.1842185645453687,8.29521498037431e-05,0.7035854332822006,0.7337599374828423,0.3398503152753391,-0.0973226113280326,0.7728854326258747,0.5481969324955625,0.1884637969651881,-0.4489516817888989,0.4666424919470717,797.8021978021978,795.7875457875458,795.3846153846154,778.8644688644689,788.9377289377289,674.5054945054945,0.062988,0.019897,0.995667,2.83371,0.785065,2.026215,1.0,1.0,1.0,1.0,1.0,90.0,,1660301735.852
0.8112354283764053,-0.0983357147282845,0.0002190553110637,0.7214552550617757,0.1904302530521355,-0.0557067002588046,-0.3849182556743351,0.291380043348081,0.5889781907257118,0.1842185645453687,-0.0155983558727591,0.7233559085424018,0.7368279066955511,0.3315555499820037,-0.1139752616727429,0.7920452412943592,0.5434095965724728,0.160566900416349,-0.4753550872066061,0.4691792154683864,804.2490842490843,796.1904761904763,791.7582417582418,781.2820512820513,726.4835164835165,661.6117216117216,0.062988,0.019897,0.995667,2.83371,0.785065,2.026215,1.0,1.0,1.0,1.0,1.0,90.0,,1660301735.853
0.8112354283764053,-0.0983357147282845,0.0002190553110637,0.7214552550617757,0.1904302530521355,-0.0557067002588046,-0.3849182556743351,0.291380043348081,0.5889781907257118,0.1842185645453687,-0.0155983558727591,0.7233559085424018,0.7368279066955511,0.3315555499820037,-0.1139752616727429,0.7920452412943592,0.5434095965724728,0.160566900416349,-0.4753550872066061,0.4691792154683864,780.4761904761905,792.5641025641025,792.967032967033,796.5934065934066,757.9120879120879,562.893772893773,0.062988,0.019897,0.995667,2.83371,0.785065,2.026215,1.0,1.0,1.0,1.0,1.0,90.0,,1660301735.854
0.8112354283764053,-0.0983357147282845,0.0002190553110637,0.7214552550617757,0.1904302530521355,-0.0557067002588046,-0.3849182556743351,0.291380043348081,0.5889781907257118,0.1842185645453687,-0.0155983558727591,0.7233559085424018,0.7368279066955511,0.3315555499820037,-0.1139752616727429,0.7920452412943592,0.5434095965724728,0.160566900416349,-0.4753550872066061,0.4691792154683864,765.9706959706959,794.981684981685,794.981684981685,783.6996336996338,745.0183150183151,691.4285714285714,0.062988,0.019897,0.995667,2.83371,0.785065,2.026215,1.0,1.0,1.0,1.0,1.0,90.0,,1660301735.854
0.8112354283764053,-0.0983357147282845,0.0002190553110637,0.7214552550617757,0.1904302530521355,-0.0557067002588046,-0.3849182556743351,0.291380043348081,0.5889781907257118,0.1842185645453687,-0.0155983558727591,0.7233559085424018,0.7368279066955511,0.3315555499820037,-0.1139752616727429,0.7920452412943592,0.5434095965724728,0.160566900416349,-0.4753550872066061,0.4691792154683864,776.0439560439561,796.1904761904763,801.025641025641,794.1758241758242,562.0879120879121,736.1538461538462,0.062988,0.019897,0.995667,2.83371,0.785065,2.026215,1.0,1.0,1.0,1.0,1.0,90.0,,1660301735.855
0.8112354283764053,-0.0983357147282845,0.0002190553110637,0.7214552550617757,0.1904302530521355,-0.0557067002588046,-0.3849182556743351,0.291380043348081,0.5889781907257118,0.1842185645453687,-0.0155983558727591,0.7233559085424018,0.7368279066955511,0.3315555499820037,-0.1139752616727429,0.7920452412943592,0.5434095965724728,0.160566900416349,-0.4753550872066061,0.4691792154683864,789.7435897435897,801.025641025641,805.4578754578755,802.6373626373627,565.3113553113553,757.9120879120879,0.062988,0.019897,0.995667,2.83371,0.785065,2.026215,1.0,1.0,1.0,1.0,1.0,90.0,,1660301735.855
0.8112354283764053,-0.0983357147282845,0.0002190553110637,0.7214552550617757,0.1904302530521355,-0.0557067002588046,-0.3849182556743351,0.291380043348081,0.5889781907257118,0.1842185645453687,-0.0155983558727591,0.7233559085424018,0.7368279066955511,0.3315555499820037,-0.1139752616727429,0.7920452412943592,0.5434095965724728,0.160566900416349,-0.4753550872066061,0.4691792154683864,805.8608058608058,809.0842490842491,806.2637362637363,806.6666666666667,697.0695970695971,954.1391941391942,0.062988,0.019897,0.995667,2.83371,0.785065,2.026215,1.0,1.0,1.0,1.0,1.0,90.0,,1660301735.855
0.8112354283764053,-0.0983357147282845,0.0002190553110637,0.7214552550617757,0.1904302530521355,-0.0557067002588046,-0.3849182556743351,0.291380043348081,0.5889781907257118,0.1842185645453687,-0.0155983558727591,0.7233559085424018,0.7368279066955511,0.3315555499820037,-0.1139752616727429,0.7920452412943592,0.5434095965724728,0.160566900416349,-0.4753550872066061,0.4691792154683864,796.1904761904763,801.8315018315019,803.040293040293,812.7106227106227,776.8498168498169,970.2564102564104,0.062988,0.019897,0.995667,2.83371,0.785065,2.026215,1.0,1.0,1.0,1.0,1.0,90.0,,1660301735.856
0.8112354283764053,-0.0983357147282845,0.0002190553110637,0.7214552550617757,0.1904302530521355,-0.0557067002588046,-0.3849182556743351,0.291380043348081,0.5889781907257118,0.1842185645453687,-0.0155983558727591,0.7233559085424018,0.7368279066955511,0.3315555499820037,-0.1139752616727429,0.7920452412943592,0.5434095965724728,0.160566900416349,-0.4753550872066061,0.4691792154683864,776.4468864468864,792.967032967033,796.5934065934066,802.2344322344322,848.5714285714286,896.1172161172161,0.062988,0.019897,0.995667,2.83371,0.785065,2.026215,1.0,1.0,1.0,1.0,1.0,90.0,,1660301735.856
0.8112354283764053,-0.0983357147282845,0.0002190553110637,0.7214552550617757,0.1904302530521355,-0.0557067002588046,-0.3849182556743351,0.291380043348081,0.5889781907257118,0.1842185645453687,-0.0155983558727591,0.7233559085424018,0.7368279066955511,0.3315555499820037,-0.1139752616727429,0.7920452412943592,0.5434095965724728,0.160566900416349,-0.4753550872066061,0.4691792154683864,782.4908424908425,785.7142857142858,794.5787545787546,797.3992673992674,861.4652014652015,763.1501831501831,0.062988,0.019897,0.995667,2.83371,0.785065,2.026215,1.0,1.0,1.0,1.0,1.0,90.0,,1660301735.856
0.8112354283764053,-0.0983357147282845,0.0002190553110637,0.7214552550617757,0.1904302530521355,-0.0557067002588046,-0.3849182556743351,0.291380043348081,0.5889781907257118,0.1842185645453687,-0.0155983558727591,0.7233559085424018,0.7368279066955511,0.3315555499820037,-0.1139752616727429,0.7920452412943592,0.5434095965724728,0.160566900416349,-0.4753550872066061,0.4691792154683864,799.4139194139194,789.7435897435897,796.1904761904763,801.4285714285714,911.4285714285714,707.1428571428571,0.062988,0.019897,0.995667,2.83371,0.785065,2.026215,1.0,1.0,1.0,1.0,1.0,90.0,,1660301735.857
0.8112354283764053,-0.0983357147282845,0.0002190553110637,0.7214552550617757,0.1904302530521355,-0.0557067002588046,-0.3849182556743351,0.291380043348081,0.5889781907257118,0.1842185645453687,-0.0155983558727591,0.7233559085424018,0.7368279066955511,0.3315555499820037,-0.1139752616727429,0.7920452412943592,0.5434095965724728,0.160566900416349,-0.4753550872066061,0.4691792154683864,815.5311355311355,799.8168498168499,799.0109890109891,804.6520146520147,933.1868131868132,670.8791208791209,0.062988,0.019897,0.995667,2.83371,0.785065,2.026215,1.0,1.0,1.0,1.0,1.0,90.0,,1660301735.857
0.8112354283764053,-0.0983357147282845,0.0002190553110637,0.7214552550617757,0.1904302530521355,-0.0557067002588046,-0.3849182556743351,0.291380043348081,0.5889781907257118,0.1842185645453687,-0.0155983558727591,0.7233559085424018,0.7368279066955511,0.3315555499820037,-0.1139752616727429,0.7920452412943592,0.5434095965724728,0.160566900416349,-0.4753550872066061,0.4691792154683864,796.996336996337,800.6227106227107,799.4139194139194,802.6373626373627,932.3809523809524,805.054945054945,0.064758,0.018494,1.002991,3.192596,0.433655,1.75705,1.0,1.0,1.0,1.0,1.0,90.0,,1660301735.9
0.8112354283764053,-0.0983357147282845,0.0002190553110637,0.7214552550617757,0.1904302530521355,-0.0557067002588046,-0.3849182556743351,0.291380043348081,0.5889781907257118,0.1842185645453687,-0.0155983558727591,0.7233559085424018,0.7368279066955511,0.3315555499820037,-0.1139752616727429,0.7920452412943592,0.5434095965724728,0.160566900416349,-0.4753550872066061,0.4691792154683864,778.0586080586081,799.0109890109891,800.2197802197802,802.6373626373627,996.043956043956,915.0549450549452,0.064758,0.018494,1.002991,3.192596,0.433655,1.75705,1.0,1.0,1.0,1.0,1.0,90.0,,1660301735.901
0.8112354283764053,-0.0983357147282845,0.0002190553110637,0.7214552550617757,0.1904302530521355,-0.0557067002588046,-0.3849182556743351,0.291380043348081,0.5889781907257118,0.1842185645453687,-0.0155983558727591,0.7233559085424018,0.7368279066955511,0.3315555499820037,-0.1139752616727429,0.7920452412943592,0.5434095965724728,0.160566900416349,-0.4753550872066061,0.4691792154683864,790.5494505494506,798.2051282051282,801.025641025641,817.5457875457876,987.985347985348,800.2197802197802,0.064758,0.018494,1.002991,3.192596,0.433655,1.75705,1.0,1.0,1.0,1.0,1.0,90.0,,1660301735.902
0.8112354283764053,-0.0983357147282845,0.0002190553110637,0.7214552550617757,0.1904302530521355,-0.0557067002588046,-0.3849182556743351,0.291380043348081,0.5889781907257118,0.1842185645453687,-0.0155983558727591,0.7233559085424018,0.7368279066955511,0.3315555499820037,-0.1139752616727429,0.7920452412943592,0.5434095965724728,0.160566900416349,-0.4753550872066061,0.4691792154683864,794.5787545787546,793.7728937728938,795.3846153846154,813.1135531135532,929.5604395604396,684.5787545787546,0.064758,0.018494,1.002991,3.192596,0.433655,1.75705,1.0,1.0,1.0,1.0,1.0,90.0,,1660301735.902
0.8112354283764053,-0.0983357147282845,0.0002190553110637,0.7214552550617757,0.1904302530521355,-0.0557067002588046,-0.3849182556743351,0.291380043348081,0.5889781907257118,0.1842185645453687,-0.0155983558727591,0.7233559085424018,0.7368279066955511,0.3315555499820037,-0.1139752616727429,0.7920452412943592,0.5434095965724728,0.160566900416349,-0.4753550872066061,0.4691792154683864,793.7728937728938,798.2051282051282,790.952380952381,787.7289377289378,1012.564102564103,891.2820512820513,0.064758,0.018494,1.002991,3.192596,0.433655,1.75705,1.0,1.0,1.0,1.0,1.0,90.0,,1660301735.902
0.8112354283764053,-0.0983357147282845,0.0002190553110637,0.7214552550617757,0.1904302530521355,-0.0557067002588046,-0.3849182556743351,0.291380043348081,0.5889781907257118,0.1842185645453687,-0.0155983558727591,0.7233559085424018,0.7368279066955511,0.3315555499820037,-0.1139752616727429,0.7920452412943592,0.5434095965724728,0.160566900416349,-0.4753550872066061,0.4691792154683864,806.6666666666667,804.6520146520147,794.1758241758242,794.981684981685,986.7765567765568,1115.714285714286,0.064758,0.018494,1.002991,3.192596,0.433655,1.75705,1.0,1.0,1.0,1.0,1.0,90.0,,1660301735.903
0.8112354283764053,-0.0983357147282845,0.0002190553110637,0.7214552550617757,0.1904302530521355,-0.0557067002588046,-0.3849182556743351,0.291380043348081,0.5889781907257118,0.1842185645453687,-0.0155983558727591,0.7233559085424018,0.7368279066955511,0.3315555499820037,-0.1139752616727429,0.7920452412943592,0.5434095965724728,0.160566900416349,-0.4753550872066061,0.4691792154683864,799.8168498168499,799.4139194139194,794.1758241758242,799.4139194139194,833.6630036630037,1168.498168498169,0.064758,0.018494,1.002991,3.192596,0.433655,1.75705,1.0,1.0,1.0,1.0,1.0,90.0,,1660301735.903
0.8112354283764053,-0.0983357147282845,0.0002190553110637,0.7214552550617757,0.1904302530521355,-0.0557067002588046,-0.3849182556743351,0.291380043348081,0.5889781907257118,0.1842185645453687,-0.0155983558727591,0.7233559085424018,0.7368279066955511,0.3315555499820037,-0.1139752616727429,0.7920452412943592,0.5434095965724728,0.160566900416349,-0.4753550872066061,0.4691792154683864,793.7728937728938,784.5054945054945,788.1318681318681,793.3699633699634,778.4615384615385,818.7545787545788,0.064758,0.018494,1.002991,3.192596,0.433655,1.75705,1.0,1.0,1.0,1.0,1.0,90.0,,1660301735.903
0.8112354283764053,-0.0983357147282845,0.0002190553110637,0.7214552550617757,0.1904302530521355,-0.0557067002588046,-0.3849182556743351,0.291380043348081,0.5889781907257118,0.1842185645453687,-0.0155983558727591,0.7233559085424018,0.7368279066955511,0.3315555499820037,-0.1139752616727429,0.7920452412943592,0.5434095965724728,0.160566900416349,-0.4753550872066061,0.4691792154683864,801.025641025641,785.7142857142858,788.9377289377289,802.2344322344322,745.4212454212454,796.5934065934066,0.064758,0.018494,1.002991,3.192596,0.433655,1.75705,1.0,1.0,1.0,1.0,1.0,90.0,,1660301735.904
0.8112354283764053,-0.0983357147282845,0.0002190553110637,0.7214552550617757,0.1904302530521355,-0.0557067002588046,-0.3849182556743351,0.291380043348081,0.5889781907257118,0.1842185645453687,-0.0155983558727591,0.7233559085424018,0.7368279066955511,0.3315555499820037,-0.1139752616727429,0.7920452412943592,0.5434095965724728,0.160566900416349,-0.4753550872066061,0.4691792154683864,802.2344322344322,798.6080586080586,790.952380952381,793.7728937728938,756.3003663003664,953.3333333333334,0.064758,0.018494,1.002991,3.192596,0.433655,1.75705,1.0,1.0,1.0,1.0,1.0,90.0,,1660301735.904
0.8112354283764053,-0.0983357147282845,0.0002190553110637,0.7214552550617757,0.1904302530521355,-0.0557067002588046,-0.3849182556743351,0.291380043348081,0.5889781907257118,0.1842185645453687,-0.0155983558727591,0.7233559085424018,0.7368279066955511,0.3315555499820037,-0.1139752616727429,0.7920452412943592,0.5434095965724728,0.160566900416349,-0.4753550872066061,0.4691792154683864,800.6227106227107,794.1758241758242,796.996336996337,793.7728937728938,821.978021978022,701.5018315018315,0.064758,0.018494,1.002991,3.192596,0.433655,1.75705,1.0,1.0,1.0,1.0,1.0,90.0,,1660301735.904
0.8112354283764053,-0.0983357147282845,0.0002190553110637,0.7214552550617757,0.1904302530521355,-0.0557067002588046,-0.3849182556743351,0.291380043348081,0.5889781907257118,0.1842185645453687,-0.0155983558727591,0.7233559085424018,0.7368279066955511,0.3315555499820037,-0.1139752616727429,0.7920452412943592,0.5434095965724728,0.160566900416349,-0.4753550872066061,0.4691792154683864,776.0439560439561,785.7142857142858,799.8168498168499,813.1135531135532,853.0036630036631,636.6300366300367,0.064758,0.018494,1.002991,3.192596,0.433655,1.75705,1.0,1.0,1.0,1.0,1.0,90.0,,1660301735.905
0.8112354283764053,-0.0983357147282845,0.0002190553110637,0.7214552550617757,0.1904302530521355,-0.0557067002588046,-0.3849182556743351,0.291380043348081,0.5889781907257118,0.1842185645453687,-0.0155983558727591,0.7233559085424018,0.7368279066955511,0.3315555499820037,-0.1139752616727429,0.7920452412943592,0.5434095965724728,0.160566900416349,-0.4753550872066061,0.4691792154683864,758.3150183150184,785.7142857142858,794.1758241758242,801.4285714285714,908.2051282051282,814.7252747252747,0.059326,0.010315,0.99231,3.087921,1.420593,2.078552,1.0,1.0,1.0,1.0,1.0,90.0,,1660301735.927
0.8112354283764053,-0.0983357147282845,0.0002190553110637,0.7214552550617757,0.1904302530521355,-0.0557067002588046,-0.3849182556743351,0.291380043348081,0.5889781907257118,0.1842185645453687,-0.0155983558727591,0.7233559085424018,0.7368279066955511,0.3315555499820037,-0.1139752616727429,0.7920452412943592,0.5434095965724728,0.160566900416349,-0.4753550872066061,0.4691792154683864,772.4175824175825,788.5347985347986,792.1611721611722,779.2673992673992,933.5897435897436,884.8351648351648,0.059326,0.010315,0.99231,3.087921,1.420593,2.078552,1.0,1.0,1.0,1.0,1.0,90.0,,1660301735.927
0.8112354283764053,-0.0983357147282845,0.0002190553110637,0.7214552550617757,0.1904302530521355,-0.0557067002588046,-0.3849182556743351,0.291380043348081,0.5889781907257118,0.1842185645453687,-0.0155983558727591,0.7233559085424018,0.7368279066955511,0.3315555499820037,-0.1139752616727429,0.7920452412943592,0.5434095965724728,0.160566900416349,-0.4753550872066061,0.4691792154683864,777.6556776556777,793.3699633699634,790.952380952381,784.1025641025641,877.5824175824176,700.2930402930403,0.059326,0.010315,0.99231,3.087921,1.420593,2.078552,1.0,1.0,1.0,1.0,1.0,90.0,,1660301735.928
0.8123562906093388,-0.176963620533608,0.002342519923806,0.7503717893023488,0.1855792917176704,-0.0728510446030703,-0.3938552130418004,0.2530164337272979,0.573505862128037,0.1842185645453687,-0.0155983558727591,0.7573831787655533,0.7440804425376658,0.3285393548019098,-0.1331358411214978,0.8170995713977091,0.533638657186867,0.1440925230440144,-0.49559674624704,0.4777756375444642,782.0879120879121,795.7875457875458,788.5347985347986,788.5347985347986,784.9084249084249,740.1831501831502,0.059326,0.010315,0.99231,3.087921,1.420593,2.078552,1.0,1.0,1.0,1.0,1.0,90.0,,1660301735.928
0.8123562906093388,-0.176963620533608,0.002342519923806,0.7503717893023488,0.1855792917176704,-0.0728510446030703,-0.3938552130418004,0.2530164337272979,0.573505862128037,0.1842185645453687,-0.0155983558727591,0.7573831787655533,0.7440804425376658,0.3285393548019098,-0.1331358411214978,0.8170995713977091,0.533638657186867,0.1440925230440144,-0.49559674624704,0.4777756375444642,791.3553113553114,793.7728937728938,790.5494505494506,790.952380952381,757.9120879120879,979.92673992674,0.059326,0.010315,0.99231,3.087921,1.420593,2.078552,1.0,1.0,1.0,1.0,1.0,90.0,,1660301735.929
0.8123562906093388,-0.176963620533608,0.002342519923806,0.7503717893023488,0.1855792917176704,-0.0728510446030703,-0.3938552130418004,0.2530164337272979,0.573505862128037,0.1842185645453687,-0.0155983558727591,0.7573831787655533,0.7440804425376658,0.3285393548019098,-0.1331358411214978,0.8170995713977091,0.533638657186867,0.1440925230440144,-0.49559674624704,0.4777756375444642,795.7875457875458,792.5641025641025,790.952380952381,810.6959706959707,746.6300366300367,959.7802197802198,0.059326,0.010315,0.99231,3.087921,1.420593,2.078552,1.0,1.0,1.0,1.0,1.0,90.0,,1660301735.929
0.8123562906093388,-0.176963620533608,0.002342519923806,0.7503717893023488,0.1855792917176704,-0.0728510446030703,-0.3938552130418004,0.2530164337272979,0.573505862128037,0.1842185645453687,-0.0155983558727591,0.7573831787655533,0.7440804425376658,0.3285393548019098,-0.1331358411214978,0.8170995713977091,0.533638657186867,0.1440925230440144,-0.49559674624704,0.4777756375444642,802.6373626373627,796.1904761904763,789.7435897435897,825.2014652014652,726.0805860805862,1043.589743589744,0.059326,0.010315,0.99231,3.087921,1.420593,2.078552,1.0,1.0,1.0,1.0,1.0,90.0,,1660301735.93
0.8123562906093388,-0.176963620533608,0.002342519923806,0.7503717893023488,0.1855792917176704,-0.0728510446030703,-0.3938552130418004,0.2530164337272979,0.573505862128037,0.1842185645453687,-0.0155983558727591,0.7573831787655533,0.7440804425376658,0.3285393548019098,-0.1331358411214978,0.8170995713977091,0.533638657186867,0.1440925230440144,-0.49559674624704,0.4777756375444642,813.1135531135532,789.7435897435897,791.3553113553114,822.3809523809524,723.2600732600732,853.0036630036631,0.059326,0.010315,0.99231,3.087921,1.420593,2.078552,1.0,1.0,1.0,1.0,1.0,90.0,,1660301735.93
0.8123562906093388,-0.176963620533608,0.002342519923806,0.7503717893023488,0.1855792917176704,-0.0728510446030703,-0.3938552130418004,0.2530164337272979,0.573505862128037,0.1842185645453687,-0.0155983558727591,0.7573831787655533,0.7440804425376658,0.3285393548019098,-0.1331358411214978,0.8170995713977091,0.533638657186867,0.1440925230440144,-0.49559674624704,0.4777756375444642,805.054945054945,791.7582417582418,790.952380952381,811.5018315018315,734.1391941391942,645.0915750915751,0.059326,0.010315,0.99231,3.087921,1.420593,2.078552,1.0,1.0,1.0,1.0,1.0,90.0,,1660301735.93
0.8123562906093388,-0.176963620533608,0.002342519923806,0.7503717893023488,0.1855792917176704,-0.0728510446030703,-0.3938552130418004,0.2530164337272979,0.573505862128037,0.1842185645453687,-0.0155983558727591,0.7573831787655533,0.7440804425376658,0.3285393548019098,-0.1331358411214978,0.8170995713977091,0.533638657186867,0.1440925230440144,-0.49559674624704,0.4777756375444642,778.0586080586081,799.0109890109891,791.3553113553114,792.967032967033,785.3113553113553,685.7875457875458,0.059326,0.010315,0.99231,3.087921,1.420593,2.078552,1.0,1.0,1.0,1.0,1.0,90.0,,1660301735.931
0.8123562906093388,-0.176963620533608,0.002342519923806,0.7503717893023488,0.1855792917176704,-0.0728510446030703,-0.3938552130418004,0.2530164337272979,0.573505862128037,0.1842185645453687,-0.0155983558727591,0.7573831787655533,0.7440804425376658,0.3285393548019098,-0.1331358411214978,0.8170995713977091,0.533638657186867,0.1440925230440144,-0.49559674624704,0.4777756375444642,784.9084249084249,800.6227106227107,792.1611721611722,788.9377289377289,793.7728937728938,681.3553113553114,0.059326,0.010315,0.99231,3.087921,1.420593,2.078552,1.0,1.0,1.0,1.0,1.0,90.0,,1660301735.931
0.8123562906093388,-0.176963620533608,0.002342519923806,0.7503717893023488,0.1855792917176704,-0.0728510446030703,-0.3938552130418004,0.2530164337272979,0.573505862128037,0.1842185645453687,-0.0155983558727591,0.7573831787655533,0.7440804425376658,0.3285393548019098,-0.1331358411214978,0.8170995713977091,0.533638657186867,0.1440925230440144,-0.49559674624704,0.4777756375444642,805.4578754578755,801.4285714285714,791.3553113553114,789.3406593406594,813.5164835164835,786.1172161172161,0.059326,0.010315,0.99231,3.087921,1.420593,2.078552,1.0,1.0,1.0,1.0,1.0,90.0,,1660301735.931
0.8123562906093388,-0.176963620533608,0.002342519923806,0.7503717893023488,0.1855792917176704,-0.0728510446030703,-0.3938552130418004,0.2530164337272979,0.573505862128037,0.1842185645453687,-0.0155983558727591,0.7573831787655533,0.7440804425376658,0.3285393548019098,-0.1331358411214978,0.8170995713977091,0.533638657186867,0.1440925230440144,-0.49559674624704,0.4777756375444642,809.8901098901099,803.8461538461539,791.7582417582418,794.5787545787546,845.3479853479854,812.7106227106227,0.056946,0.019958,0.993164,2.811279,0.306549,2.766418,1.0,1.0,1.0,1.0,1.0,90.0,,1660301735.975
0.8123562906093388,-0.176963620533608,0.002342519923806,0.7503717893023488,0.1855792917176704,-0.0728510446030703,-0.3938552130418004,0.2530164337272979,0.573505862128037,0.1842185645453687,-0.0155983558727591,0.7573831787655533,0.7440804425376658,0.3285393548019098,-0.1331358411214978,0.8170995713977091,0.533638657186867,0.1440925230440144,-0.49559674624704,0.4777756375444642,811.9047619047619,811.9047619047619,793.3699633699634,800.2197802197802,871.1355311355312,782.893772893773,0.056946,0.019958,0.993164,2.811279,0.306549,2.766418,1.0,1.0,1.0,1.0,1.0,90.0,,1660301735.975
0.8123562906093388,-0.176963620533608,0.002342519923806,0.7503717893023488,0.1855792917176704,-0.0728510446030703,-0.3938552130418004,0.2530164337272979,0.573505862128037,0.1842185645453687,-0.0155983558727591,0.7573831787655533,0.7440804425376658,0.3285393548019098,-0.1331358411214978,0.8170995713977091,0.533638657186867,0.1440925230440144,-0.49559674624704,0.4777756375444642,795.7875457875458,809.0842490842491,790.952380952381,802.2344322344322,820.7692307692308,700.6959706959707,0.056946,0.019958,0.993164,2.811279,0.306549,2.766418,1.0,1.0,1.0,1.0,1.0,90.0,,1660301735.976
0.8123562906093388,-0.176963620533608,0.002342519923806,0.7503717893023488,0.1855792917176704,-0.0728510446030703,-0.3938552130418004,0.2530164337272979,0.573505862128037,0.1842185645453687,-0.0155983558727591,0.7573831787655533,0.7440804425376658,0.3285393548019098,-0.1331358411214978,0.8170995713977091,0.533638657186867,0.1440925230440144,-0.49559674624704,0.4777756375444642,777.2527472527473,799.0109890109891,791.3553113553114,801.8315018315019,759.1208791208792,606.8131868131868,0.056946,0.019958,0.993164,2.811279,0.306549,2.766418,1.0,1.0,1.0,1.0,1.0,90.0,,1660301735.976
0.8123562906093388,-0.176963620533608,0.002342519923806,0.7503717893023488,0.1855792917176704,-0.0728510446030703,-0.3938552130418004,0.2530164337272979,0.573505862128037,0.1842185645453687,-0.0155983558727591,0.7573831787655533,0.7440804425376658,0.3285393548019098,-0.1331358411214978,0.8170995713977091,0.533638657186867,0.1440925230440144,-0.49559674624704,0.4777756375444642,783.2967032967033,797.3992673992674,788.1318681318681,779.6703296703297,819.1575091575091,699.8901098901099,0.056946,0.019958,0.993164,2.811279,0.306549,2.766418,1.0,1.0,1.0,1.0,1.0,90.0,,1660301735.976
0.8123562906093388,-0.176963620533608,0.002342519923806,0.7503717893023488,0.1855792917176704,-0.0728510446030703,-0.3938552130418004,0.2530164337272979,0.573505862128037,0.1842185645453687,-0.0155983558727591,0.7573831787655533,0.7440804425376658,0.3285393548019098,-0.1331358411214978,0.8170995713977091,0.533638657186867,0.1440925230440144,-0.49559674624704,0.4777756375444642,797.3992673992674,805.054945054945,782.4908424908425,769.5970695970697,806.2637362637363,966.6300366300368,0.056946,0.019958,0.993164,2.811279,0.306549,2.766418,1.0,1.0,1.0,1.0,1.0,90.0,,1660301735.976
0.8123562906093388,-0.176963620533608,0.002342519923806,0.7503717893023488,0.1855792917176704,-0.0728510446030703,-0.3938552130418004,0.2530164337272979,0.573505862128037,0.1842185645453687,-0.0155983558727591,0.7573831787655533,0.7440804425376658,0.3285393548019098,-0.1331358411214978,0.8170995713977091,0.533638657186867,0.1440925230440144,-0.49559674624704,0.4777756375444642,801.4285714285714,809.4871794871796,786.5201465201466,788.5347985347986,765.9706959706959,1119.74358974359,0.056946,0.019958,0.993164,2.811279,0.306549,2.766418,1.0,1.0,1.0,1.0,1.0,90.0,,1660301735.977
0.8123562906093388,-0.176963620533608,0.002342519923806,0.7503717893023488,0.1855792917176704,-0.0728510446030703,-0.3938552130418004,0.2530164337272979,0.573505862128037,0.1842185645453687,-0.0155983558727591,0.7573831787655533,0.7440804425376658,0.3285393548019098,-0.1331358411214978,0.8170995713977091,0.533638657186867,0.1440925230440144,-0.49559674624704,0.4777756375444642,801.025641025641,794.1758241758242,789.3406593406594,794.981684981685,707.1428571428571,757.5091575091575,0.056946,0.019958,0.993164,2.811279,0.306549,2.766418,1.0,1.0,1.0,1.0,1.0,90.0,,1660301735.977
0.8123562906093388,-0.176963620533608,0.002342519923806,0.7503717893023488,0.1855792917176704,-0.0728510446030703,-0.3938552130418004,0.2530164337272979,0.573505862128037,0.1842185645453687,-0.0155983558727591,0.7573831787655533,0.7440804425376658,0.3285393548019098,-0.1331358411214978,0.8170995713977091,0.533638657186867,0.1440925230440144,-0.49559674624704,0.4777756375444642,800.6227106227107,790.5494505494506,791.7582417582418,799.0109890109891,696.6666666666667,567.7289377289377,0.056946,0.019958,0.993164,2.811279,0.306549,2.766418,1.0,1.0,1.0,1.0,1.0,90.0,,1660301735.977
0.8123562906093388,-0.176963620533608,0.002342519923806,0.7503717893023488,0.1855792917176704,-0.0728510446030703,-0.3938552130418004,0.2530164337272979,0.573505862128037,0.1842185645453687,-0.0155983558727591,0.7573831787655533,0.7440804425376658,0.3285393548019098,-0.1331358411214978,0.8170995713977091,0.533638657186867,0.1440925230440144,-0.49559674624704,0.4777756375444642,798.6080586080586,795.3846153846154,795.3846153846154,802.6373626373627,787.7289377289378,711.5750915750916,0.056946,0.019958,0.993164,2.811279,0.306549,2.766418,1.0,1.0,1.0,1.0,1.0,90.0,,1660301735.978
0.8123562906093388,-0.176963620533608,0.002342519923806,0.7503717893023488,0.1855792917176704,-0.0728510446030703,-0.3938552130418004,0.2530164337272979,0.573505862128037,0.1842185645453687,-0.0155983558727591,0.7573831787655533,0.7440804425376658,0.3285393548019098,-0.1331358411214978,0.8170995713977091,0.533638657186867,0.1440925230440144,-0.49559674624704,0.4777756375444642,797.3992673992674,794.1758241758242,793.7728937728938,803.4432234432235,834.4688644688645,644.6886446886447,0.056946,0.019958,0.993164,2.811279,0.306549,2.766418,1.0,1.0,1.0,1.0,1.0,90.0,,1660301735.978
0.8123562906093388,-0.176963620533608,0.002342519923806,0.7503717893023488,0.1855792917176704,-0.0728510446030703,-0.3938552130418004,0.2530164337272979,0.573505862128037,0.1842185645453687,-0.0155983558727591,0.7573831787655533,0.7440804425376658,0.3285393548019098,-0.1331358411214978,0.8170995713977091,0.533638657186867,0.1440925230440144,-0.49559674624704,0.4777756375444642,790.5494505494506,797.8021978021978,794.1758241758242,809.0842490842491,815.1282051282052,558.8644688644689,0.056946,0.019958,0.993164,2.811279,0.306549,2.766418,1.0,1.0,1.0,1.0,1.0,90.0,,1660301735.978
0.8123562906093388,-0.176963620533608,0.002342519923806,0.7503717893023488,0.1855792917176704,-0.0728510446030703,-0.3938552130418004,0.2530164337272979,0.573505862128037,0.1842185645453687,-0.0155983558727591,0.7573831787655533,0.7440804425376658,0.3285393548019098,-0.1331358411214978,0.8170995713977091,0.533638657186867,0.1440925230440144,-0.49559674624704,0.4777756375444642,787.7289377289378,800.2197802197802,796.5934065934066,813.5164835164835,830.4395604395604,688.6080586080586,0.062439,0.015991,1.0,3.058014,0.822449,2.033691,1.0,1.0,1.0,1.0,1.0,90.0,,1660301736.02
0.8123562906093388,-0.176963620533608,0.002342519923806,0.7503717893023488,0.1855792917176704,-0.0728510446030703,-0.3938552130418004,0.2530164337272979,0.573505862128037,0.1842185645453687,-0.0155983558727591,0.7573831787655533,0.7440804425376658,0.3285393548019098,-0.1331358411214978,0.8170995713977091,0.533638657186867,0.1440925230440144,-0.49559674624704,0.4777756375444642,792.5641025641025,796.5934065934066,798.6080586080586,801.8315018315019,804.6520146520147,859.8534798534798,0.062439,0.015991,1.0,3.058014,0.822449,2.033691,1.0,1.0,1.0,1.0,1.0,90.0,,1660301736.021
0.8123562906093388,-0.176963620533608,0.002342519923806,0.7503717893023488,0.1855792917176704,-0.0728510446030703,-0.3938552130418004,0.2530164337272979,0.573505862128037,0.1842185645453687,-0.0155983558727591,0.7573831787655533,0.7440804425376658,0.3285393548019098,-0.1331358411214978,0.8170995713977091,0.533638657186867,0.1440925230440144,-0.49559674624704,0.4777756375444642,801.8315018315019,793.3699633699634,802.6373626373627,794.1758241758242,762.7472527472528,801.4285714285714,0.062439,0.015991,1.0,3.058014,0.822449,2.033691,1.0,1.0,1.0,1.0,1.0,90.0,,1660301736.021
0.8123562906093388,-0.176963620533608,0.002342519923806,0.7503717893023488,0.1855792917176704,-0.0728510446030703,-0.3938552130418004,0.2530164337272979,0.573505862128037,0.1842185645453687,-0.0155983558727591,0.7573831787655533,0.7440804425376658,0.3285393548019098,-0.1331358411214978,0.8170995713977091,0.533638657186867,0.1440925230440144,-0.49559674624704,0.4777756375444642,801.025641025641,799.4139194139194,796.996336996337,799.8168498168499,762.3443223443223,779.2673992673992,0.062439,0.015991,1.0,3.058014,0.822449,2.033691,1.0,1.0,1.0,1.0,1.0,90.0,,1660301736.021
0.8123562906093388,-0.176963620533608,0.002342519923806,0.7503717893023488,0.1855792917176704,-0.0728510446030703,-0.3938552130418004,0.2530164337272979,0.573505862128037,0.1842185645453687,-0.0155983558727591,0.7573831787655533,0.7440804425376658,0.3285393548019098,-0.1331358411214978,0.8170995713977091,0.533638657186867,0.1440925230440144,-0.49559674624704,0.4777756375444642,803.8461538461539,807.8754578754579,796.996336996337,804.6520146520147,783.2967032967033,947.2893772893772,0.062439,0.015991,1.0,3.058014,0.822449,2.033691,1.0,1.0,1.0,1.0,1.0,90.0,,1660301736.022
0.8089782894163561,-0.257004059711177,-0.0022258431979481,0.7663743663914487,0.1911464870003972,-0.1036625102678607,-0.3907875316129842,0.2198706134148277,0.59528061652238,0.1842185645453687,-0.0155983558727591,0.7997000606482214,0.7605488922766355,0.3285035084382915,-0.1498841477950964,0.8414868709923223,0.5215467053787335,0.1402519915628972,-0.5087125382995296,0.4808803847265468,792.5641025641025,800.2197802197802,799.4139194139194,807.8754578754579,738.1684981684982,923.919413919414,0.062439,0.015991,1.0,3.058014,0.822449,2.033691,1.0,1.0,1.0,1.0,1.0,90.0,,1660301736.022
0.8089782894163561,-0.257004059711177,-0.0022258431979481,0.7663743663914487,0.1911464870003972,-0.1036625102678607,-0.3907875316129842,0.2198706134148277,0.59528061652238,0.1842185645453687,-0.0155983558727591,0.7997000606482214,0.7605488922766355,0.3285035084382915,-0.1498841477950964,0.8414868709923223,0.5215467053787335,0.1402519915628972,-0.5087125382995296,0.4808803847265468,782.0879120879121,800.2197802197802,799.8168498168499,808.2783882783883,706.7399267399268,1044.798534798535,0.062439,0.015991,1.0,3.058014,0.822449,2.033691,1.0,1.0,1.0,1.0,1.0,90.0,,1660301736.023
0.8089782894163561,-0.257004059711177,-0.0022258431979481,0.7663743663914487,0.1911464870003972,-0.1036625102678607,-0.3907875316129842,0.2198706134148277,0.59528061652238,0.1842185645453687,-0.0155983558727591,0.7997000606482214,0.7605488922766355,0.3285035084382915,-0.1498841477950964,0.8414868709923223,0.5215467053787335,0.1402519915628972,-0.5087125382995296,0.4808803847265468,785.3113553113553,792.967032967033,799.0109890109891,786.9230769230769,752.6739926739926,862.6739926739926,0.062439,0.015991,1.0,3.058014,0.822449,2.033691,1.0,1.0,1.0,1.0,1.0,90.0,,1660301736.023
0.8089782894163561,-0.257004059711177,-0.0022258431979481,0.7663743663914487,0.1911464870003972,-0.1036625102678607,-0.3907875316129842,0.2198706134148277,0.59528061652238,0.1842185645453687,-0.0155983558727591,0.7997000606482214,0.7605488922766355,0.3285035084382915,-0.1498841477950964,0.8414868709923223,0.5215467053787335,0.1402519915628972,-0.5087125382995296,0.4808803847265468,793.7728937728938,789.7435897435897,796.1904761904763,789.7435897435897,786.1172161172161,617.2893772893773,0.062439,0.015991,1.0,3.058014,0.822449,2.033691,1.0,1.0,1.0,1.0,1.0,90.0,,1660301736.023
0.8089782894163561,-0.257004059711177,-0.0022258431979481,0.7663743663914487,0.1911464870003972,-0.1036625102678607,-0.3907875316129842,0.2198706134148277,0.59528061652238,0.1842185645453687,-0.0155983558727591,0.7997000606482214,0.7605488922766355,0.3285035084382915,-0.1498841477950964,0.8414868709923223,0.5215467053787335,0.1402519915628972,-0.5087125382995296,0.4808803847265468,802.6373626373627,804.2490842490843,795.7875457875458,805.8608058608058,807.0695970695971,666.8498168498169,0.062439,0.015991,1.0,3.058014,0.822449,2.033691,1.0,1.0,1.0,1.0,1.0,90.0,,1660301736.024
0.8089782894163561,-0.257004059711177,-0.0022258431979481,0.7663743663914487,0.1911464870003972,-0.1036625102678607,-0.3907875316129842,0.2198706134148277,0.59528061652238,0.1842185645453687,-0.0155983558727591,0.7997000606482214,0.7605488922766355,0.3285035084382915,-0.1498841477950964,0.8414868709923223,0.5215467053787335,0.1402519915628972,-0.5087125382995296,0.4808803847265468,803.040293040293,807.0695970695971,794.5787545787546,790.952380952381,782.4908424908425,601.1721611721612,0.062439,0.015991,1.0,3.058014,0.822449,2.033691,1.0,1.0,1.0,1.0,1.0,90.0,,1660301736.024
0.8089782894163561,-0.257004059711177,-0.0022258431979481,0.7663743663914487,0.1911464870003972,-0.1036625102678607,-0.3907875316129842,0.2198706134148277,0.59528061652238,0.1842185645453687,-0.0155983558727591,0.7997000606482214,0.7605488922766355,0.3285035084382915,-0.1498841477950964,0.8414868709923223,0.5215467053787335,0.1402519915628972,-0.5087125382995296,0.4808803847265468,791.3553113553114,801.025641025641,795.3846153846154,787.3260073260074,795.7875457875458,599.1575091575091,0.062439,0.015991,1.0,3.058014,0.822449,2.033691,1.0,1.0,1.0,1.0,1.0,90.0,,1660301736.024
0.8089782894163561,-0.257004059711177,-0.0022258431979481,0.7663743663914487,0.1911464870003972,-0.1036625102678607,-0.3907875316129842,0.2198706134148277,0.59528061652238,0.1842185645453687,-0.0155983558727591,0.7997000606482214,0.7605488922766355,0.3285035084382915,-0.1498841477950964,0.8414868709923223,0.5215467053787335,0.1402519915628972,-0.5087125382995296,0.4808803847265468,788.5347985347986,799.4139194139194,793.7728937728938,790.952380952381,833.6630036630037,693.4432234432235,0.062439,0.015991,1.0,3.058014,0.822449,2.033691,1.0,1.0,1.0,1.0,1.0,90.0,,1660301736.089
0.8089782894163561,-0.257004059711177,-0.0022258431979481,0.7663743663914487,0.1911464870003972,-0.1036625102678607,-0.3907875316129842,0.2198706134148277,0.59528061652238,0.1842185645453687,-0.0155983558727591,0.7997000606482214,0.7605488922766355,0.3285035084382915,-0.1498841477950964,0.8414868709923223,0.5215467053787335,0.1402519915628972,-0.5087125382995296,0.4808803847265468,799.0109890109891,799.4139194139194,788.9377289377289,797.3992673992674,802.6373626373627,692.6373626373627,0.062439,0.015991,1.0,3.058014,0.822449,2.033691,1.0,1.0,1.0,1.0,1.0,90.0,,1660301736.09
0.8089782894163561,-0.257004059711177,-0.0022258431979481,0.7663743663914487,0.1911464870003972,-0.1036625102678607,-0.3907875316129842,0.2198706134148277,0.59528061652238,0.1842185645453687,-0.0155983558727591,0.7997000606482214,0.7605488922766355,0.3285035084382915,-0.1498841477950964,0.8414868709923223,0.5215467053787335,0.1402519915628972,-0.5087125382995296,0.4808803847265468,804.2490842490843,803.4432234432235,788.1318681318681,806.2637362637363,836.0805860805862,668.4615384615385,0.062439,0.015991,1.0,3.058014,0.822449,2.033691,1.0,1.0,1.0,1.0,1.0,90.0,,1660301736.091
0.8089782894163561,-0.257004059711177,-0.0022258431979481,0.7663743663914487,0.1911464870003972,-0.1036625102678607,-0.3907875316129842,0.2198706134148277,0.59528061652238,0.1842185645453687,-0.0155983558727591,0.7997000606482214,0.7605488922766355,0.3285035084382915,-0.1498841477950964,0.8414868709923223,0.5215467053787335,0.1402519915628972,-0.5087125382995296,0.4808803847265468,801.4285714285714,806.2637362637363,786.1172161172161,796.1904761904763,888.0586080586081,753.4798534798535,0.062439,0.015991,1.0,3.058014,0.822449,2.033691,1.0,1.0,1.0,1.0,1.0,90.0,,1660301736.091
0.8089782894163561,-0.257004059711177,-0.0022258431979481,0.7663743663914487,0.1911464870003972,-0.1036625102678607,-0.3907875316129842,0.2198706134148277,0.59528061652238,0.1842185645453687,-0.0155983558727591,0.7997000606482214,0.7605488922766355,0.3285035084382915,-0.1498841477950964,0.8414868709923223,0.5215467053787335,0.1402519915628972,-0.5087125382995296,0.4808803847265468,805.8608058608058,809.0842490842491,790.1465201465202,774.0293040293041,841.7216117216118,955.3479853479854,0.062439,0.015991,1.0,3.058014,0.822449,2.033691,1.0,1.0,1.0,1.0,1.0,90.0,,1660301736.092
0.8089782894163561,-0.257004059711177,-0.0022258431979481,0.7663743663914487,0.1911464870003972,-0.1036625102678607,-0.3907875316129842,0.2198706134148277,0.59528061652238,0.1842185645453687,-0.0155983558727591,0.7997000606482214,0.7605488922766355,0.3285035084382915,-0.1498841477950964,0.8414868709923223,0.5215467053787335,0.1402519915628972,-0.5087125382995296,0.4808803847265468,809.4871794871796,813.5164835164835,796.1904761904763,784.1025641025641,789.7435897435897,1150.3663003663,0.062439,0.015991,1.0,3.058014,0.822449,2.033691,1.0,1.0,1.0,1.0,1.0,90.0,,1660301736.093
0.8089782894163561,-0.257004059711177,-0.0022258431979481,0.7663743663914487,0.1911464870003972,-0.1036625102678607,-0.3907875316129842,0.2198706134148277,0.59528061652238,0.1842185645453687,-0.0155983558727591,0.7997000606482214,0.7605488922766355,0.3285035084382915,-0.1498841477950964,0.8414868709923223,0.5215467053787335,0.1402519915628972,-0.5087125382995296,0.4808803847265468,797.3992673992674,810.6959706959707,794.5787545787546,799.8168498168499,823.5897435897436,1185.421245421245,0.062439,0.015991,1.0,3.058014,0.822449,2.033691,1.0,1.0,1.0,1.0,1.0,90.0,,1660301736.093
0.8089782894163561,-0.257004059711177,-0.0022258431979481,0.7663743663914487,0.1911464870003972,-0.1036625102678607,-0.3907875316129842,0.2198706134148277,0.59528061652238,0.1842185645453687,-0.0155983558727591,0.7997000606482214,0.7605488922766355,0.3285035084382915,-0.1498841477950964,0.8414868709923223,0.5215467053787335,0.1402519915628972,-0.5087125382995296,0.4808803847265468,779.2673992673992,801.025641025641,794.981684981685,801.4285714285714,905.3846153846154,925.1282051282052,0.062439,0.015991,1.0,3.058014,0.822449,2.033691,1.0,1.0,1.0,1.0,1.0,90.0,,1660301736.094
0.8089782894163561,-0.257004059711177,-0.0022258431979481,0.7663743663914487,0.1911464870003972,-0.1036625102678607,-0.3907875316129842,0.2198706134148277,0.59528061652238,0.1842185645453687,-0.0155983558727591,0.7997000606482214,0.7605488922766355,0.3285035084382915,-0.1498841477950964,0.8414868709923223,0.5215467053787335,0.1402519915628972,-0.5087125382995296,0.4808803847265468,792.5641025641025,794.5787545787546,797.8021978021978,796.1904761904763,929.96336996337,807.4725274725275,0.062439,0.015991,1.0,3.058014,0.822449,2.033691,1.0,1.0,1.0,1.0,1.0,90.0,,1660301736.094
0.8089782894163561,-0.257004059711177,-0.0022258431979481,0.7663743663914487,0.1911464870003972,-0.1036625102678607,-0.3907875316129842,0.2198706134148277,0.59528061652238,0.1842185645453687,-0.0155983558727591,0.7997000606482214,0.7605488922766355,0.3285035084382915,-0.1498841477950964,0.8414868709923223,0.5215467053787335,0.1402519915628972,-0.5087125382995296,0.4808803847265468,793.3699633699634,798.6080586080586,794.5787545787546,792.1611721611722,971.868131868132,877.985347985348,0.062439,0.015991,1.0,3.058014,0.822449,2.033691,1.0,1.0,1.0,1.0,1.0,90.0,,1660301736.095
0.8089782894163561,-0.257004059711177,-0.0022258431979481,0.7663743663914487,0.1911464870003972,-0.1036625102678607,-0.3907875316129842,0.2198706134148277,0.59528061652238,0.1842185645453687,-0.0155983558727591,0.7997000606482214,0.7605488922766355,0.3285035084382915,-0.1498841477950964,0.8414868709923223,0.5215467053787335,0.1402519915628972,-0.5087125382995296,0.4808803847265468,778.8644688644689,796.996336996337,795.7875457875458,785.7142857142858,912.2344322344322,755.8974358974359,0.062439,0.015991,1.0,3.058014,0.822449,2.033691,1.0,1.0,1.0,1.0,1.0,90.0,,1660301736.095
0.8089782894163561,-0.257004059711177,-0.0022258431979481,0.7663743663914487,0.1911464870003972,-0.1036625102678607,-0.3907875316129842,0.2198706134148277,0.59528061652238,0.1842185645453687,-0.0155983558727591,0.7997000606482214,0.7605488922766355,0.3285035084382915,-0.1498841477950964,0.8414868709923223,0.5215467053787335,0.1402519915628972,-0.5087125382995296,0.4808803847265468,784.1025641025641,792.967032967033,797.8021978021978,797.3992673992674,821.1721611721612,653.5531135531136,0.062439,0.015991,1.0,3.058014,0.822449,2.033691,1.0,1.0,1.0,1.0,1.0,90.0,,1660301736.096
0.8089782894163561,-0.257004059711177,-0.0022258431979481,0.7663743663914487,0.1911464870003972,-0.1036625102678607,-0.3907875316129842,0.2198706134148277,0.59528061652238,0.1842185645453687,-0.0155983558727591,0.7997000606482214,0.7605488922766355,0.3285035084382915,-0.1498841477950964,0.8414868709923223,0.5215467053787335,0.1402519915628972,-0.5087125382995296,0.4808803847265468,796.1904761904763,802.2344322344322,794.981684981685,799.8168498168499,803.8461538461539,702.7106227106227,0.062866,0.013672,0.99353,3.626251,0.695343,2.609406,1.0,1.0,1.0,1.0,1.0,90.0,,1660301736.139
0.8089782894163561,-0.257004059711177,-0.0022258431979481,0.7663743663914487,0.1911464870003972,-0.1036625102678607,-0.3907875316129842,0.2198706134148277,0.59528061652238,0.1842185645453687,-0.0155983558727591,0.7997000606482214,0.7605488922766355,0.3285035084382915,-0.1498841477950964,0.8414868709923223,0.5215467053787335,0.1402519915628972,-0.5087125382995296,0.4808803847265468,814.7252747252747,806.6666666666667,798.2051282051282,801.4285714285714,774.0293040293041,701.0989010989011,0.062866,0.013672,0.99353,3.626251,0.695343,2.609406,1.0,1.0,1.0,1.0,1.0,90.0,,1660301736.14
0.8089782894163561,-0.257004059711177,-0.0022258431979481,0.7663743663914487,0.1911464870003972,-0.1036625102678607,-0.3907875316129842,0.2198706134148277,0.59528061652238,0.1842185645453687,-0.0155983558727591,0.7997000606482214,0.7605488922766355,0.3285035084382915,-0.1498841477950964,0.8414868709923223,0.5215467053787335,0.1402519915628972,-0.5087125382995296,0.4808803847265468,807.8754578754579,800.2197802197802,801.8315018315019,815.934065934066,837.2893772893773,724.8717948717949,0.062866,0.013672,0.99353,3.626251,0.695343,2.609406,1.0,1.0,1.0,1.0,1.0,90.0,,1660301736.14
0.8089782894163561,-0.257004059711177,-0.0022258431979481,0.7663743663914487,0.1911464870003972,-0.1036625102678607,-0.3907875316129842,0.2198706134148277,0.59528061652238,0.1842185645453687,-0.0155983558727591,0.7997000606482214,0.7605488922766355,0.3285035084382915,-0.1498841477950964,0.8414868709923223,0.5215467053787335,0.1402519915628972,-0.5087125382995296,0.4808803847265468,796.996336996337,793.7728937728938,795.3846153846154,805.8608058608058,827.6190476190476,831.2454212454213,0.062866,0.013672,0.99353,3.626251,0.695343,2.609406,1.0,1.0,1.0,1.0,1.0,90.0,,1660301736.141
0.8089782894163561,-0.257004059711177,-0.0022258431979481,0.7663743663914487,0.1911464870003972,-0.1036625102678607,-0.3907875316129842,0.2198706134148277,0.59528061652238,0.1842185645453687,-0.0155983558727591,0.7997000606482214,0.7605488922766355,0.3285035084382915,-0.1498841477950964,0.8414868709923223,0.5215467053787335,0.1402519915628972,-0.5087125382995296,0.4808803847265468,795.3846153846154,798.6080586080586,792.5641025641025,787.7289377289378,783.6996336996338,956.5567765567766,0.062866,0.013672,0.99353,3.626251,0.695343,2.609406,1.0,1.0,1.0,1.0,1.0,90.0,,1660301736.141
0.8089782894163561,-0.257004059711177,-0.0022258431979481,0.7663743663914487,0.1911464870003972,-0.1036625102678607,-0.3907875316129842,0.2198706134148277,0.59528061652238,0.1842185645453687,-0.0155983558727591,0.7997000606482214,0.7605488922766355,0.3285035084382915,-0.1498841477950964,0.8414868709923223,0.5215467053787335,0.1402519915628972,-0.5087125382995296,0.4808803847265468,798.2051282051282,807.4725274725275,794.1758241758242,791.7582417582418,805.054945054945,1000.07326007326,0.062866,0.013672,0.99353,3.626251,0.695343,2.609406,1.0,1.0,1.0,1.0,1.0,90.0,,1660301736.142
0.8089782894163561,-0.257004059711177,-0.0022258431979481,0.7663743663914487,0.1911464870003972,-0.1036625102678607,-0.3907875316129842,0.2198706134148277,0.59528061652238,0.1842185645453687,-0.0155983558727591,0.7997000606482214,0.7605488922766355,0.3285035084382915,-0.1498841477950964,0.8414868709923223,0.5215467053787335,0.1402519915628972,-0.5087125382995296,0.4808803847265468,802.2344322344322,810.6959706959707,795.7875457875458,806.6666666666667,853.0036630036631,1162.051282051282,0.062866,0.013672,0.99353,3.626251,0.695343,2.609406,1.0,1.0,1.0,1.0,1.0,90.0,,1660301736.142
0.7991796974360075,-0.3167089200962335,-0.0197601705472877,0.7730758059505125,0.1987884554649428,-0.1521195996565484,-0.3982561388492081,0.1931073763442533,0.6348101500728456,0.1842185645453687,-0.0155983558727591,0.8305883762228264,0.7807256872127922,0.3287012722125682,-0.1596555634429343,0.8577475528807231,0.5138461777634376,0.1453819473626933,-0.5105654860387376,0.4786640841955374,792.5641025641025,803.4432234432235,793.3699633699634,790.1465201465202,838.901098901099,1083.076923076923,0.062866,0.013672,0.99353,3.626251,0.695343,2.609406,1.0,1.0,1.0,1.0,1.0,90.0,,1660301736.143
0.7991796974360075,-0.3167089200962335,-0.0197601705472877,0.7730758059505125,0.1987884554649428,-0.1521195996565484,-0.3982561388492081,0.1931073763442533,0.6348101500728456,0.1842185645453687,-0.0155983558727591,0.8305883762228264,0.7807256872127922,0.3287012722125682,-0.1596555634429343,0.8577475528807231,0.5138461777634376,0.1453819473626933,-0.5105654860387376,0.4786640841955374,790.952380952381,792.5641025641025,788.9377289377289,790.5494505494506,778.4615384615385,743.4065934065934,0.062866,0.013672,0.99353,3.626251,0.695343,2.609406,1.0,1.0,1.0,1.0,1.0,90.0,,1660301736.145
0.7991796974360075,-0.3167089200962335,-0.0197601705472877,0.7730758059505125,0.1987884554649428,-0.1521195996565484,-0.3982561388492081,0.1931073763442533,0.6348101500728456,0.1842185645453687,-0.0155983558727591,0.8305883762228264,0.7807256872127922,0.3287012722125682,-0.1596555634429343,0.8577475528807231,0.5138461777634376,0.1453819473626933,-0.5105654860387376,0.4786640841955374,803.8461538461539,796.1904761904763,790.952380952381,783.6996336996338,767.1794871794872,625.3479853479854,0.062866,0.013672,0.99353,3.626251,0.695343,2.609406,1.0,1.0,1.0,1.0,1.0,90.0,,1660301736.145
0.7991796974360075,-0.3167089200962335,-0.0197601705472877,0.7730758059505125,0.1987884554649428,-0.1521195996565484,-0.3982561388492081,0.1931073763442533,0.6348101500728456,0.1842185645453687,-0.0155983558727591,0.8305883762228264,0.7807256872127922,0.3287012722125682,-0.1596555634429343,0.8577475528807231,0.5138461777634376,0.1453819473626933,-0.5105654860387376,0.4786640841955374,811.9047619047619,802.6373626373627,790.952380952381,790.1465201465202,749.8534798534798,547.1794871794872,0.062866,0.013672,0.99353,3.626251,0.695343,2.609406,1.0,1.0,1.0,1.0,1.0,90.0,,1660301736.146
0.7991796974360075,-0.3167089200962335,-0.0197601705472877,0.7730758059505125,0.1987884554649428,-0.1521195996565484,-0.3982561388492081,0.1931073763442533,0.6348101500728456,0.1842185645453687,-0.0155983558727591,0.8305883762228264,0.7807256872127922,0.3287012722125682,-0.1596555634429343,0.8577475528807231,0.5138461777634376,0.1453819473626933,-0.5105654860387376,0.4786640841955374,815.5311355311355,808.2783882783883,794.981684981685,810.2930402930403,770.8058608058608,543.5531135531136,0.062866,0.013672,0.99353,3.626251,0.695343,2.609406,1.0,1.0,1.0,1.0,1.0,90.0,,1660301736.146
0.7991796974360075,-0.3167089200962335,-0.0197601705472877,0.7730758059505125,0.1987884554649428,-0.1521195996565484,-0.3982561388492081,0.1931073763442533,0.6348101500728456,0.1842185645453687,-0.0155983558727591,0.8305883762228264,0.7807256872127922,0.3287012722125682,-0.1596555634429343,0.8577475528807231,0.5138461777634376,0.1453819473626933,-0.5105654860387376,0.4786640841955374,800.6227106227107,807.4725274725275,796.5934065934066,809.8901098901099,730.5128205128206,596.3369963369963,0.064514,0.019104,1.000061,3.215027,0.284119,2.990723,1.0,1.0,1.0,1.0,1.0,90.0,,1660301736.169
0.7991796974360075,-0.3167089200962335,-0.0197601705472877,0.7730758059505125,0.1987884554649428,-0.1521195996565484,-0.3982561388492081,0.1931073763442533,0.6348101500728456,0.1842185645453687,-0.0155983558727591,0.8305883762228264,0.7807256872127922,0.3287012722125682,-0.1596555634429343,0.8577475528807231,0.5138461777634376,0.1453819473626933,-0.5105654860387376,0.4786640841955374,785.7142857142858,797.8021978021978,794.981684981685,808.6813186813187,635.0183150183151,538.3150183150183,0.064514,0.019104,1.000061,3.215027,0.284119,2.990723,1.0,1.0,1.0,1.0,1.0,90.0,,1660301736.17
0.7991796974360075,-0.3167089200962335,-0.0197601705472877,0.7730758059505125,0.1987884554649428,-0.1521195996565484,-0.3982561388492081,0.1931073763442533,0.6348101500728456,0.1842185645453687,-0.0155983558727591,0.8305883762228264,0.7807256872127922,0.3287012722125682,-0.1596555634429343,0.8577475528807231,0.5138461777634376,0.1453819473626933,-0.5105654860387376,0.4786640841955374,797.8021978021978,793.7728937728938,794.5787545787546,802.2344322344322,603.992673992674,413.8095238095238,0.064514,0.019104,1.000061,3.215027,0.284119,2.990723,1.0,1.0,1.0,1.0,1.0,90.0,,1660301736.17
0.7991796974360075,-0.3167089200962335,-0.0197601705472877,0.7730758059505125,0.1987884554649428,-0.1521195996565484,-0.3982561388492081,0.1931073763442533,0.6348101500728456,0.1842185645453687,-0.0155983558727591,0.8305883762228264,0.7807256872127922,0.3287012722125682,-0.1596555634429343,0.8577475528807231,0.5138461777634376,0.1453819473626933,-0.5105654860387376,0.4786640841955374,803.040293040293,797.3992673992674,794.5787545787546,783.2967032967033,608.4249084249085,364.6520146520147,0.064514,0.019104,1.000061,3.215027,0.284119,2.990723,1.0,1.0,1.0,1.0,1.0,90.0,,1660301736.17
0.7991796974360075,-0.3167089200962335,-0.0197601705472877,0.7730758059505125,0.1987884554649428,-0.1521195996565484,-0.3982561388492081,0.1931073763442533,0.6348101500728456,0.1842185645453687,-0.0155983558727591,0.8305883762228264,0.7807256872127922,0.3287012722125682,-0.1596555634429343,0.8577475528807231,0.5138461777634376,0.1453819473626933,-0.5105654860387376,0.4786640841955374,800.6227106227107,803.4432234432235,796.1904761904763,791.3553113553114,686.1904761904763,564.5054945054945,0.064514,0.019104,1.000061,3.215027,0.284119,2.990723,1.0,1.0,1.0,1.0,1.0,90.0,,1660301736.171
0.7991796974360075,-0.3167089200962335,-0.0197601705472877,0.7730758059505125,0.1987884554649428,-0.1521195996565484,-0.3982561388492081,0.1931073763442533,0.6348101500728456,0.1842185645453687,-0.0155983558727591,0.8305883762228264,0.7807256872127922,0.3287012722125682,-0.1596555634429343,0.8577475528807231,0.5138461777634376,0.1453819473626933,-0.5105654860387376,0.4786640841955374,803.040293040293,810.2930402930403,792.5641025641025,811.0989010989011,715.6043956043957,876.3736263736264,0.064514,0.019104,1.000061,3.215027,0.284119,2.990723,1.0,1.0,1.0,1.0,1.0,90.0,,1660301736.171
0.7991796974360075,-0.3167089200962335,-0.0197601705472877,0.7730758059505125,0.1987884554649428,-0.1521195996565484,-0.3982561388492081,0.1931073763442533,0.6348101500728456,0.1842185645453687,-0.0155983558727591,0.8305883762228264,0.7807256872127922,0.3287012722125682,-0.1596555634429343,0.8577475528807231,0.5138461777634376,0.1453819473626933,-0.5105654860387376,0.4786640841955374,789.7435897435897,807.0695970695971,790.952380952381,807.0695970695971,655.1648351648352,903.3699633699634,0.064514,0.019104,1.000061,3.215027,0.284119,2.990723,1.0,1.0,1.0,1.0,1.0,90.0,,1660301736.171
0.7991796974360075,-0.3167089200962335,-0.0197601705472877,0.7730758059505125,0.1987884554649428,-0.1521195996565484,-0.3982561388492081,0.1931073763442533,0.6348101500728456,0.1842185645453687,-0.0155983558727591,0.8305883762228264,0.7807256872127922,0.3287012722125682,-0.1596555634429343,0.8577475528807231,0.5138461777634376,0.1453819473626933,-0.5105654860387376,0.4786640841955374,786.5201465201466,795.3846153846154,796.996336996337,796.1904761904763,738.974358974359,664.4322344322344,0.064514,0.019104,1.000061,3.215027,0.284119,2.990723,1.0,1.0,1.0,1.0,1.0,90.0,,1660301736.172
0.7991796974360075,-0.3167089200962335,-0.0197601705472877,0.7730758059505125,0.1987884554649428,-0.1521195996565484,-0.3982561388492081,0.1931073763442533,0.6348101500728456,0.1842185645453687,-0.0155983558727591,0.8305883762228264,0.7807256872127922,0.3287012722125682,-0.1596555634429343,0.8577475528807231,0.5138461777634376,0.1453819473626933,-0.5105654860387376,0.4786640841955374,794.1758241758242,799.4139194139194,797.8021978021978,800.6227106227107,811.0989010989011,834.8717948717949,0.064514,0.019104,1.000061,3.215027,0.284119,2.990723,1.0,1.0,1.0,1.0,1.0,90.0,,1660301736.172
0.7991796974360075,-0.3167089200962335,-0.0197601705472877,0.7730758059505125,0.1987884554649428,-0.1521195996565484,-0.3982561388492081,0.1931073763442533,0.6348101500728456,0.1842185645453687,-0.0155983558727591,0.8305883762228264,0.7807256872127922,0.3287012722125682,-0.1596555634429343,0.8577475528807231,0.5138461777634376,0.1453819473626933,-0.5105654860387376,0.4786640841955374,790.1465201465202,808.2783882783883,792.1611721611722,788.5347985347986,821.1721611721612,905.3846153846154,0.064514,0.019104,1.000061,3.215027,0.284119,2.990723,1.0,1.0,1.0,1.0,1.0,90.0,,1660301736.173
0.7991796974360075,-0.3167089200962335,-0.0197601705472877,0.7730758059505125,0.1987884554649428,-0.1521195996565484,-0.3982561388492081,0.1931073763442533,0.6348101500728456,0.1842185645453687,-0.0155983558727591,0.8305883762228264,0.7807256872127922,0.3287012722125682,-0.1596555634429343,0.8577475528807231,0.5138461777634376,0.1453819473626933,-0.5105654860387376,0.4786640841955374,786.5201465201466,800.6227106227107,792.967032967033,777.6556776556777,844.945054945055,640.6593406593407,0.064514,0.019104,1.000061,3.215027,0.284119,2.990723,1.0,1.0,1.0,1.0,1.0,90.0,,1660301736.173
0.7991796974360075,-0.3167089200962335,-0.0197601705472877,0.7730758059505125,0.1987884554649428,-0.1521195996565484,-0.3982561388492081,0.1931073763442533,0.6348101500728456,0.1842185645453687,-0.0155983558727591,0.8305883762228264,0.7807256872127922,0.3287012722125682,-0.1596555634429343,0.8577475528807231,0.5138461777634376,0.1453819473626933,-0.5105654860387376,0.4786640841955374,777.6556776556777,794.5787545787546,797.3992673992674,796.1904761904763,792.5641025641025,556.8498168498169,0.064514,0.019104,1.000061,3.215027,0.284119,2.990723,1.0,1.0,1.0,1.0,1.0,90.0,,1660301736.173
0.7991796974360075,-0.3167089200962335,-0.0197601705472877,0.7730758059505125,0.1987884554649428,-0.1521195996565484,-0.3982561388492081,0.1931073763442533,0.6348101500728456,0.1842185645453687,-0.0155983558727591,0.8305883762228264,0.7807256872127922,0.3287012722125682,-0.1596555634429343,0.8577475528807231,0.5138461777634376,0.1453819473626933,-0.5105654860387376,0.4786640841955374,780.8791208791209,798.6080586080586,793.7728937728938,794.1758241758242,809.0842490842491,674.5054945054945,0.061157,0.024109,0.998779,3.117828,0.471039,2.497253,1.0,1.0,1.0,1.0,1.0,90.0,,1660301736.237
0.7991796974360075,-0.3167089200962335,-0.0197601705472877,0.7730758059505125,0.1987884554649428,-0.1521195996565484,-0.3982561388492081,0.1931073763442533,0.6348101500728456,0.1842185645453687,-0.0155983558727591,0.8305883762228264,0.7807256872127922,0.3287012722125682,-0.1596555634429343,0.8577475528807231,0.5138461777634376,0.1453819473626933,-0.5105654860387376,0.4786640841955374,800.2197802197802,800.2197802197802,789.7435897435897,798.6080586080586,850.989010989011,762.3443223443223,0.061157,0.024109,0.998779,3.117828,0.471039,2.497253,1.0,1.0,1.0,1.0,1.0,90.0,,1660301736.238
0.7991796974360075,-0.3167089200962335,-0.0197601705472877,0.7730758059505125,0.1987884554649428,-0.1521195996565484,-0.3982561388492081,0.1931073763442533,0.6348101500728456,0.1842185645453687,-0.0155983558727591,0.8305883762228264,0.7807256872127922,0.3287012722125682,-0.1596555634429343,0.8577475528807231,0.5138461777634376,0.1453819473626933,-0.5105654860387376,0.4786640841955374,817.1428571428571,801.8315018315019,791.7582417582418,807.4725274725275,854.2124542124542,635.4212454212454,0.061157,0.024109,0.998779,3.117828,0.471039,2.497253,1.0,1.0,1.0,1.0,1.0,90.0,,1660301736.239
0.7991796974360075,-0.3167089200962335,-0.0197601705472877,0.7730758059505125,0.1987884554649428,-0.1521195996565484,-0.3982561388492081,0.1931073763442533,0.6348101500728456,0.1842185645453687,-0.0155983558727591,0.8305883762228264,0.7807256872127922,0.3287012722125682,-0.1596555634429343,0.8577475528807231,0.5138461777634376,0.1453819473626933,-0.5105654860387376,0.4786640841955374,805.054945054945,804.6520146520147,792.5641025641025,796.996336996337,862.6739926739926,766.3736263736264,0.061157,0.024109,0.998779,3.117828,0.471039,2.497253,1.0,1.0,1.0,1.0,1.0,90.0,,1660301736.239
0.7991796974360075,-0.3167089200962335,-0.0197601705472877,0.7730758059505125,0.1987884554649428,-0.1521195996565484,-0.3982561388492081,0.1931073763442533,0.6348101500728456,0.1842185645453687,-0.0155983558727591,0.8305883762228264,0.7807256872127922,0.3287012722125682,-0.1596555634429343,0.8577475528807231,0.5138461777634376,0.1453819473626933,-0.5105654860387376,0.4786640841955374,785.3113553113553,803.4432234432235,790.1465201465202,783.6996336996338,751.4652014652015,960.5860805860806,0.061157,0.024109,0.998779,3.117828,0.471039,2.497253,1.0,1.0,1.0,1.0,1.0,90.0,,1660301736.239
0.7991796974360075,-0.3167089200962335,-0.0197601705472877,0.7730758059505125,0.1987884554649428,-0.1521195996565484,-0.3982561388492081,0.1931073763442533,0.6348101500728456,0.1842185645453687,-0.0155983558727591,0.8305883762228264,0.7807256872127922,0.3287012722125682,-0.1596555634429343,0.8577475528807231,0.5138461777634376,0.1453819473626933,-0.5105654860387376,0.4786640841955374,788.9377289377289,795.3846153846154,790.5494505494506,764.3589743589744,664.4322344322344,901.3553113553114,0.061157,0.024109,0.998779,3.117828,0.471039,2.497253,1.0,1.0,1.0,1.0,1.0,90.0,,1660301736.24
0.7991796974360075,-0.3167089200962335,-0.0197601705472877,0.7730758059505125,0.1987884554649428,-0.1521195996565484,-0.3982561388492081,0.1931073763442533,0.6348101500728456,0.1842185645453687,-0.0155983558727591,0.8305883762228264,0.7807256872127922,0.3287012722125682,-0.1596555634429343,0.8577475528807231,0.5138461777634376,0.1453819473626933,-0.5105654860387376,0.4786640841955374,796.996336996337,801.4285714285714,794.5787545787546,776.0439560439561,774.4322344322345,954.9450549450548,0.061157,0.024109,0.998779,3.117828,0.471039,2.497253,1.0,1.0,1.0,1.0,1.0,90.0,,1660301736.24
0.7991796974360075,-0.3167089200962335,-0.0197601705472877,0.7730758059505125,0.1987884554649428,-0.1521195996565484,-0.3982561388492081,0.1931073763442533,0.6348101500728456,0.1842185645453687,-0.0155983558727591,0.8305883762228264,0.7807256872127922,0.3287012722125682,-0.1596555634429343,0.8577475528807231,0.5138461777634376,0.1453819473626933,-0.5105654860387376,0.4786640841955374,801.4285714285714,799.0109890109891,792.1611721611722,800.2197802197802,809.0842490842491,782.4908424908425,0.061157,0.024109,0.998779,3.117828,0.471039,2.497253,1.0,1.0,1.0,1.0,1.0,90.0,,1660301736.24
0.7991796974360075,-0.3167089200962335,-0.0197601705472877,0.7730758059505125,0.1987884554649428,-0.1521195996565484,-0.3982561388492081,0.1931073763442533,0.6348101500728456,0.1842185645453687,-0.0155983558727591,0.8305883762228264,0.7807256872127922,0.3287012722125682,-0.1596555634429343,0.8577475528807231,0.5138461777634376,0.1453819473626933,-0.5105654860387376,0.4786640841955374,789.7435897435897,792.1611721611722,788.9377289377289,803.4432234432235,743.4065934065934,658.3882783882784,0.061157,0.024109,0.998779,3.117828,0.471039,2.497253,1.0,1.0,1.0,1.0,1.0,90.0,,1660301736.241
0.7811702876965019,-0.3518336713184478,-0.0441219559924118,0.7727273974130364,0.1966564375038545,-0.209705784538311,-0.420523224906004,0.1662680714070221,0.6999933433189306,0.1842185645453687,-0.0225429626204577,0.8829477035254639,0.7972823666006124,0.3270746116248939,-0.1616838691108615,0.8635312374827845,0.5170715877989537,0.1533976338901657,-0.4991421479252006,0.4864492692022298,772.8205128205128,790.952380952381,788.9377289377289,806.2637362637363,773.2234432234433,671.2820512820513,0.061157,0.024109,0.998779,3.117828,0.471039,2.497253,1.0,1.0,1.0,1.0,1.0,90.0,,1660301736.241
0.7811702876965019,-0.3518336713184478,-0.0441219559924118,0.7727273974130364,0.1966564375038545,-0.209705784538311,-0.420523224906004,0.1662680714070221,0.6999933433189306,0.1842185645453687,-0.0225429626204577,0.8829477035254639,0.7972823666006124,0.3270746116248939,-0.1616838691108615,0.8635312374827845,0.5170715877989537,0.1533976338901657,-0.4991421479252006,0.4864492692022298,786.1172161172161,802.6373626373627,796.1904761904763,799.4139194139194,852.1978021978023,809.8901098901099,0.061157,0.024109,0.998779,3.117828,0.471039,2.497253,1.0,1.0,1.0,1.0,1.0,90.0,,1660301736.242
0.7811702876965019,-0.3518336713184478,-0.0441219559924118,0.7727273974130364,0.1966564375038545,-0.209705784538311,-0.420523224906004,0.1662680714070221,0.6999933433189306,0.1842185645453687,-0.0225429626204577,0.8829477035254639,0.7972823666006124,0.3270746116248939,-0.1616838691108615,0.8635312374827845,0.5170715877989537,0.1533976338901657,-0.4991421479252006,0.4864492692022298,803.040293040293,809.8901098901099,799.4139194139194,811.5018315018315,850.1831501831502,850.5860805860806,0.061157,0.024109,0.998779,3.117828,0.471039,2.497253,1.0,1.0,1.0,1.0,1.0,90.0,,1660301736.243
0.7811702876965019,-0.3518336713184478,-0.0441219559924118,0.7727273974130364,0.1966564375038545,-0.209705784538311,-0.420523224906004,0.1662680714070221,0.6999933433189306,0.1842185645453687,-0.0225429626204577,0.8829477035254639,0.7972823666006124,0.3270746116248939,-0.1616838691108615,0.8635312374827845,0.5170715877989537,0.1533976338901657,-0.4991421479252006,0.4864492692022298,806.2637362637363,801.8315018315019,789.3406593406594,817.1428571428571,806.6666666666667,736.1538461538462,0.064209,0.01947,0.99762,3.446808,-0.02243,1.443024,1.0,1.0,1.0,1.0,1.0,90.0,,1660301736.265
0.7811702876965019,-0.3518336713184478,-0.0441219559924118,0.7727273974130364,0.1966564375038545,-0.209705784538311,-0.420523224906004,0.1662680714070221,0.6999933433189306,0.1842185645453687,-0.0225429626204577,0.8829477035254639,0.7972823666006124,0.3270746116248939,-0.1616838691108615,0.8635312374827845,0.5170715877989537,0.1533976338901657,-0.4991421479252006,0.4864492692022298,805.8608058608058,803.8461538461539,788.5347985347986,803.040293040293,822.7838827838829,740.1831501831502,0.064209,0.01947,0.99762,3.446808,-0.02243,1.443024,1.0,1.0,1.0,1.0,1.0,90.0,,1660301736.266
0.7811702876965019,-0.3518336713184478,-0.0441219559924118,0.7727273974130364,0.1966564375038545,-0.209705784538311,-0.420523224906004,0.1662680714070221,0.6999933433189306,0.1842185645453687,-0.0225429626204577,0.8829477035254639,0.7972823666006124,0.3270746116248939,-0.1616838691108615,0.8635312374827845,0.5170715877989537,0.1533976338901657,-0.4991421479252006,0.4864492692022298,809.8901098901099,803.8461538461539,796.996336996337,807.0695970695971,865.4945054945056,800.6227106227107,0.064209,0.01947,0.99762,3.446808,-0.02243,1.443024,1.0,1.0,1.0,1.0,1.0,90.0,,1660301736.266
0.7811702876965019,-0.3518336713184478,-0.0441219559924118,0.7727273974130364,0.1966564375038545,-0.209705784538311,-0.420523224906004,0.1662680714070221,0.6999933433189306,0.1842185645453687,-0.0225429626204577,0.8829477035254639,0.7972823666006124,0.3270746116248939,-0.1616838691108615,0.8635312374827845,0.5170715877989537,0.1533976338901657,-0.4991421479252006,0.4864492692022298,806.2637362637363,796.996336996337,798.2051282051282,815.1282051282052,836.4835164835165,762.7472527472528,0.064209,0.01947,0.99762,3.446808,-0.02243,1.443024,1.0,1.0,1.0,1.0,1.0,90.0,,1660301736.267
0.7811702876965019,-0.3518336713184478,-0.0441219559924118,0.7727273974130364,0.1966564375038545,-0.209705784538311,-0.420523224906004,0.1662680714070221,0.6999933433189306,0.1842185645453687,-0.0225429626204577,0.8829477035254639,0.7972823666006124,0.3270746116248939,-0.1616838691108615,0.8635312374827845,0.5170715877989537,0.1533976338901657,-0.4991421479252006,0.4864492692022298,794.981684981685,801.8315018315019,796.996336996337,796.996336996337,885.2380952380953,824.7985347985348,0.064209,0.01947,0.99762,3.446808,-0.02243,1.443024,1.0,1.0,1.0,1.0,1.0,90.0,,1660301736.267
0.7811702876965019,-0.3518336713184478,-0.0441219559924118,0.7727273974130364,0.1966564375038545,-0.209705784538311,-0.420523224906004,0.1662680714070221,0.6999933433189306,0.1842185645453687,-0.0225429626204577,0.8829477035254639,0.7972823666006124,0.3270746116248939,-0.1616838691108615,0.8635312374827845,0.5170715877989537,0.1533976338901657,-0.4991421479252006,0.4864492692022298,795.7875457875458,812.3076923076924,797.8021978021978,763.956043956044,863.8827838827839,1034.322344322344,0.064209,0.01947,0.99762,3.446808,-0.02243,1.443024,1.0,1.0,1.0,1.0,1.0,90.0,,1660301736.267
0.7811702876965019,-0.3518336713184478,-0.0441219559924118,0.7727273974130364,0.1966564375038545,-0.209705784538311,-0.420523224906004,0.1662680714070221,0.6999933433189306,0.1842185645453687,-0.0225429626204577,0.8829477035254639,0.7972823666006124,0.3270746116248939,-0.1616838691108615,0.8635312374827845,0.5170715877989537,0.1533976338901657,-0.4991421479252006,0.4864492692022298,806.2637362637363,813.1135531135532,799.0109890109891,781.2820512820513,843.7362637362637,1186.227106227106,0.064209,0.01947,0.99762,3.446808,-0.02243,1.443024,1.0,1.0,1.0,1.0,1.0,90.0,,1660301736.268
0.7811702876965019,-0.3518336713184478,-0.0441219559924118,0.7727273974130364,0.1966564375038545,-0.209705784538311,-0.420523224906004,0.1662680714070221,0.6999933433189306,0.1842185645453687,-0.0225429626204577,0.8829477035254639,0.7972823666006124,0.3270746116248939,-0.1616838691108615,0.8635312374827845,0.5170715877989537,0.1533976338901657,-0.4991421479252006,0.4864492692022298,800.2197802197802,799.8168498168499,794.1758241758242,816.3369963369963,815.934065934066,958.974358974359,0.064209,0.01947,0.99762,3.446808,-0.02243,1.443024,1.0,1.0,1.0,1.0,1.0,90.0,,1660301736.268
0.7811702876965019,-0.3518336713184478,-0.0441219559924118,0.7727273974130364,0.1966564375038545,-0.209705784538311,-0.420523224906004,0.1662680714070221,0.6999933433189306,0.1842185645453687,-0.0225429626204577,0.8829477035254639,0.7972823666006124,0.3270746116248939,-0.1616838691108615,0.8635312374827845,0.5170715877989537,0.1533976338901657,-0.4991421479252006,0.4864492692022298,788.1318681318681,785.7142857142858,788.9377289377289,803.040293040293,737.3626373626374,641.8681318681319,0.064209,0.01947,0.99762,3.446808,-0.02243,1.443024,1.0,1.0,1.0,1.0,1.0,90.0,,1660301736.268
0.7811702876965019,-0.3518336713184478,-0.0441219559924118,0.7727273974130364,0.1966564375038545,-0.209705784538311,-0.420523224906004,0.1662680714070221,0.6999933433189306,0.1842185645453687,-0.0225429626204577,0.8829477035254639,0.7972823666006124,0.3270746116248939,-0.1616838691108615,0.8635312374827845,0.5170715877989537,0.1533976338901657,-0.4991421479252006,0.4864492692022298,791.7582417582418,787.3260073260074,790.5494505494506,801.025641025641,732.5274725274726,656.3736263736264,0.064209,0.01947,0.99762,3.446808,-0.02243,1.443024,1.0,1.0,1.0,1.0,1.0,90.0,,1660301736.269
0.7811702876965019,-0.3518336713184478,-0.0441219559924118,0.7727273974130364,0.1966564375038545,-0.209705784538311,-0.420523224906004,0.1662680714070221,0.6999933433189306,0.1842185645453687,-0.0225429626204577,0.8829477035254639,0.7972823666006124,0.3270746116248939,-0.1616838691108615,0.8635312374827845,0.5170715877989537,0.1533976338901657,-0.4991421479252006,0.4864492692022298,793.3699633699634,788.9377289377289,791.3553113553114,805.054945054945,745.4212454212454,575.7875457875458,0.064209,0.01947,0.99762,3.446808,-0.02243,1.443024,1.0,1.0,1.0,1.0,1.0,90.0,,1660301736.269
0.7811702876965019,-0.3518336713184478,-0.0441219559924118,0.7727273974130364,0.1966564375038545,-0.209705784538311,-0.420523224906004,0.1662680714070221,0.6999933433189306,0.1842185645453687,-0.0225429626204577,0.8829477035254639,0.7972823666006124,0.3270746116248939,-0.1616838691108615,0.8635312374827845,0.5170715877989537,0.1533976338901657,-0.4991421479252006,0.4864492692022298,782.893772893773,791.7582417582418,788.5347985347986,800.6227106227107,857.8388278388279,616.4835164835165,0.064209,0.01947,0.99762,3.446808,-0.02243,1.443024,1.0,1.0,1.0,1.0,1.0,90.0,,1660301736.269
0.7811702876965019,-0.3518336713184478,-0.0441219559924118,0.7727273974130364,0.1966564375038545,-0.209705784538311,-0.420523224906004,0.1662680714070221,0.6999933433189306,0.1842185645453687,-0.0225429626204577,0.8829477035254639,0.7972823666006124,0.3270746116248939,-0.1616838691108615,0.8635312374827845,0.5170715877989537,0.1533976338901657,-0.4991421479252006,0.4864492692022298,784.1025641025641,796.1904761904763,789.7435897435897,801.8315018315019,779.2673992673992,691.8315018315019,0.061707,0.020447,0.998169,2.243042,1.046753,1.091614,1.0,1.0,1.0,1.0,1.0,90.0,,1660301736.312
0.7811702876965019,-0.3518336713184478,-0.0441219559924118,0.7727273974130364,0.1966564375038545,-0.209705784538311,-0.420523224906004,0.1662680714070221,0.6999933433189306,0.1842185645453687,-0.0225429626204577,0.8829477035254639,0.7972823666006124,0.3270746116248939,-0.1616838691108615,0.8635312374827845,0.5170715877989537,0.1533976338901657,-0.4991421479252006,0.4864492692022298,803.8461538461539,798.6080586080586,796.5934065934066,809.8901098901099,579.8168498168499,659.5970695970697,0.061707,0.020447,0.998169,2.243042,1.046753,1.091614,1.0,1.0,1.0,1.0,1.0,90.0,,1660301736.313
0.7811702876965019,-0.3518336713184478,-0.0441219559924118,0.7727273974130364,0.1966564375038545,-0.209705784538311,-0.420523224906004,0.1662680714070221,0.6999933433189306,0.1842185645453687,-0.0225429626204577,0.8829477035254639,0.7972823666006124,0.3270746116248939,-0.1616838691108615,0.8635312374827845,0.5170715877989537,0.1533976338901657,-0.4991421479252006,0.4864492692022298,805.054945054945,800.2197802197802,796.996336996337,819.5604395604396,713.992673992674,693.4432234432235,0.061707,0.020447,0.998169,2.243042,1.046753,1.091614,1.0,1.0,1.0,1.0,1.0,90.0,,1660301736.313
0.7811702876965019,-0.3518336713184478,-0.0441219559924118,0.7727273974130364,0.1966564375038545,-0.209705784538311,-0.420523224906004,0.1662680714070221,0.6999933433189306,0.1842185645453687,-0.0225429626204577,0.8829477035254639,0.7972823666006124,0.3270746116248939,-0.1616838691108615,0.8635312374827845,0.5170715877989537,0.1533976338901657,-0.4991421479252006,0.4864492692022298,801.025641025641,807.0695970695971,795.7875457875458,819.5604395604396,765.5677655677656,860.2564102564103,0.061707,0.020447,0.998169,2.243042,1.046753,1.091614,1.0,1.0,1.0,1.0,1.0,90.0,,1660301736.313
0.7811702876965019,-0.3518336713184478,-0.0441219559924118,0.7727273974130364,0.1966564375038545,-0.209705784538311,-0.420523224906004,0.1662680714070221,0.6999933433189306,0.1842185645453687,-0.0225429626204577,0.8829477035254639,0.7972823666006124,0.3270746116248939,-0.1616838691108615,0.8635312374827845,0.5170715877989537,0.1533976338901657,-0.4991421479252006,0.4864492692022298,807.8754578754579,807.8754578754579,795.7875457875458,812.3076923076924,740.1831501831502,874.7619047619048,0.061707,0.020447,0.998169,2.243042,1.046753,1.091614,1.0,1.0,1.0,1.0,1.0,90.0,,1660301736.314
0.7811702876965019,-0.3518336713184478,-0.0441219559924118,0.7727273974130364,0.1966564375038545,-0.209705784538311,-0.420523224906004,0.1662680714070221,0.6999933433189306,0.1842185645453687,-0.0225429626204577,0.8829477035254639,0.7972823666006124,0.3270746116248939,-0.1616838691108615,0.8635312374827845,0.5170715877989537,0.1533976338901657,-0.4991421479252006,0.4864492692022298,812.7106227106227,806.6666666666667,792.1611721611722,804.6520146520147,779.6703296703297,934.7985347985348,0.061707,0.020447,0.998169,2.243042,1.046753,1.091614,1.0,1.0,1.0,1.0,1.0,90.0,,1660301736.314
0.7811702876965019,-0.3518336713184478,-0.0441219559924118,0.7727273974130364,0.1966564375038545,-0.209705784538311,-0.420523224906004,0.1662680714070221,0.6999933433189306,0.1842185645453687,-0.0225429626204577,0.8829477035254639,0.7972823666006124,0.3270746116248939,-0.1616838691108615,0.8635312374827845,0.5170715877989537,0.1533976338901657,-0.4991421479252006,0.4864492692022298,812.7106227106227,809.4871794871796,794.1758241758242,807.0695970695971,778.8644688644689,1155.201465201465,0.061707,0.020447,0.998169,2.243042,1.046753,1.091614,1.0,1.0,1.0,1.0,1.0,90.0,,1660301736.315
0.7811702876965019,-0.3518336713184478,-0.0441219559924118,0.7727273974130364,0.1966564375038545,-0.209705784538311,-0.420523224906004,0.1662680714070221,0.6999933433189306,0.1842185645453687,-0.0225429626204577,0.8829477035254639,0.7972823666006124,0.3270746116248939,-0.1616838691108615,0.8635312374827845,0.5170715877989537,0.1533976338901657,-0.4991421479252006,0.4864492692022298,804.6520146520147,790.952380952381,792.1611721611722,794.1758241758242,753.8827838827839,880.8058608058608,0.061707,0.020447,0.998169,2.243042,1.046753,1.091614,1.0,1.0,1.0,1.0,1.0,90.0,,1660301736.315
0.7811702876965019,-0.3518336713184478,-0.0441219559924118,0.7727273974130364,0.1966564375038545,-0.209705784538311,-0.420523224906004,0.1662680714070221,0.6999933433189306,0.1842185645453687,-0.0225429626204577,0.8829477035254639,0.7972823666006124,0.3270746116248939,-0.1616838691108615,0.8635312374827845,0.5170715877989537,0.1533976338901657,-0.4991421479252006,0.4864492692022298,796.5934065934066,795.7875457875458,792.967032967033,780.4761904761905,795.3846153846154,782.0879120879121,0.061707,0.020447,0.998169,2.243042,1.046753,1.091614,1.0,1.0,1.0,1.0,1.0,90.0,,1660301736.315
0.7811702876965019,-0.3518336713184478,-0.0441219559924118,0.7727273974130364,0.1966564375038545,-0.209705784538311,-0.420523224906004,0.1662680714070221,0.6999933433189306,0.1842185645453687,-0.0225429626204577,0.8829477035254639,0.7972823666006124,0.3270746116248939,-0.1616838691108615,0.8635312374827845,0.5170715877989537,0.1533976338901657,-0.4991421479252006,0.4864492692022298,796.996336996337,809.4871794871796,796.1904761904763,799.4139194139194,843.7362637362637,875.5677655677656,0.061707,0.020447,0.998169,2.243042,1.046753,1.091614,1.0,1.0,1.0,1.0,1.0,90.0,,1660301736.316
0.7811702876965019,-0.3518336713184478,-0.0441219559924118,0.7727273974130364,0.1966564375038545,-0.209705784538311,-0.420523224906004,0.1662680714070221,0.6999933433189306,0.1842185645453687,-0.0225429626204577,0.8829477035254639,0.7972823666006124,0.3270746116248939,-0.1616838691108615,0.8635312374827845,0.5170715877989537,0.1533976338901657,-0.4991421479252006,0.4864492692022298,798.6080586080586,799.4139194139194,793.7728937728938,801.8315018315019,809.4871794871796,657.5824175824176,0.061707,0.020447,0.998169,2.243042,1.046753,1.091614,1.0,1.0,1.0,1.0,1.0,90.0,,1660301736.316
0.7505429938775031,-0.3604528702492806,-0.0726577037795589,0.7637711295472054,0.1787331591388402,-0.2627102298041736,-0.4444795213313358,0.1358746338711533,0.7240105882020955,0.2070601653087188,-0.0168142932072659,0.8881504766536521,0.8089567263124294,0.3223017890422384,-0.15813054995287,0.863775091861396,0.5305678172270722,0.1600475452863033,-0.4825813191914967,0.5174834897226472,807.8754578754579,798.6080586080586,792.1611721611722,805.8608058608058,823.5897435897436,595.934065934066,0.061707,0.020447,0.998169,2.243042,1.046753,1.091614,1.0,1.0,1.0,1.0,1.0,90.0,,1660301736.316
0.7505429938775031,-0.3604528702492806,-0.0726577037795589,0.7637711295472054,0.1787331591388402,-0.2627102298041736,-0.4444795213313358,0.1358746338711533,0.7240105882020955,0.2070601653087188,-0.0168142932072659,0.8881504766536521,0.8089567263124294,0.3223017890422384,-0.15813054995287,0.863775091861396,0.5305678172270722,0.1600475452863033,-0.4825813191914967,0.5174834897226472,820.3663003663004,800.6227106227107,789.7435897435897,799.0109890109891,815.5311355311355,720.8424908424909,0.061707,0.020447,0.998169,2.243042,1.046753,1.091614,1.0,1.0,1.0,1.0,1.0,90.0,,1660301736.361
0.7505429938775031,-0.3604528702492806,-0.0726577037795589,0.7637711295472054,0.1787331591388402,-0.2627102298041736,-0.4444795213313358,0.1358746338711533,0.7240105882020955,0.2070601653087188,-0.0168142932072659,0.8881504766536521,0.8089567263124294,0.3223017890422384,-0.15813054995287,0.863775091861396,0.5305678172270722,0.1600475452863033,-0.4825813191914967,0.5174834897226472,811.9047619047619,804.6520146520147,791.7582417582418,799.8168498168499,782.0879120879121,738.1684981684982,0.061707,0.020447,0.998169,2.243042,1.046753,1.091614,1.0,1.0,1.0,1.0,1.0,90.0,,1660301736.361
0.7505429938775031,-0.3604528702492806,-0.0726577037795589,0.7637711295472054,0.1787331591388402,-0.2627102298041736,-0.4444795213313358,0.1358746338711533,0.7240105882020955,0.2070601653087188,-0.0168142932072659,0.8881504766536521,0.8089567263124294,0.3223017890422384,-0.15813054995287,0.863775091861396,0.5305678172270722,0.1600475452863033,-0.4825813191914967,0.5174834897226472,802.6373626373627,803.8461538461539,793.7728937728938,809.8901098901099,787.3260073260074,642.2710622710623,0.061707,0.020447,0.998169,2.243042,1.046753,1.091614,1.0,1.0,1.0,1.0,1.0,90.0,,1660301736.362
0.7505429938775031,-0.3604528702492806,-0.0726577037795589,0.7637711295472054,0.1787331591388402,-0.2627102298041736,-0.4444795213313358,0.1358746338711533,0.7240105882020955,0.2070601653087188,-0.0168142932072659,0.8881504766536521,0.8089567263124294,0.3223017890422384,-0.15813054995287,0.863775091861396,0.5305678172270722,0.1600475452863033,-0.4825813191914967,0.5174834897226472,802.6373626373627,804.2490842490843,795.7875457875458,808.6813186813187,773.2234432234433,759.92673992674,0.061707,0.020447,0.998169,2.243042,1.046753,1.091614,1.0,1.0,1.0,1.0,1.0,90.0,,1660301736.362
0.7505429938775031,-0.3604528702492806,-0.0726577037795589,0.7637711295472054,0.1787331591388402,-0.2627102298041736,-0.4444795213313358,0.1358746338711533,0.7240105882020955,0.2070601653087188,-0.0168142932072659,0.8881504766536521,0.8089567263124294,0.3223017890422384,-0.15813054995287,0.863775091861396,0.5305678172270722,0.1600475452863033,-0.4825813191914967,0.5174834897226472,797.3992673992674,808.2783882783883,798.2051282051282,811.5018315018315,787.7289377289378,895.7142857142858,0.061707,0.020447,0.998169,2.243042,1.046753,1.091614,1.0,1.0,1.0,1.0,1.0,90.0,,1660301736.362
0.7505429938775031,-0.3604528702492806,-0.0726577037795589,0.7637711295472054,0.1787331591388402,-0.2627102298041736,-0.4444795213313358,0.1358746338711533,0.7240105882020955,0.2070601653087188,-0.0168142932072659,0.8881504766536521,0.8089567263124294,0.3223017890422384,-0.15813054995287,0.863775091861396,0.5305678172270722,0.1600475452863033,-0.4825813191914967,0.5174834897226472,796.5934065934066,810.2930402930403,802.6373626373627,798.2051282051282,799.4139194139194,1026.666666666667,0.061707,0.020447,0.998169,2.243042,1.046753,1.091614,1.0,1.0,1.0,1.0,1.0,90.0,,1660301736.363
0.7505429938775031,-0.3604528702492806,-0.0726577037795589,0.7637711295472054,0.1787331591388402,-0.2627102298041736,-0.4444795213313358,0.1358746338711533,0.7240105882020955,0.2070601653087188,-0.0168142932072659,0.8881504766536521,0.8089567263124294,0.3223017890422384,-0.15813054995287,0.863775091861396,0.5305678172270722,0.1600475452863033,-0.4825813191914967,0.5174834897226472,810.6959706959707,813.919413919414,803.4432234432235,800.2197802197802,745.4212454212454,1094.761904761905,0.061707,0.020447,0.998169,2.243042,1.046753,1.091614,1.0,1.0,1.0,1.0,1.0,90.0,,1660301736.363
0.7505429938775031,-0.3604528702492806,-0.0726577037795589,0.7637711295472054,0.1787331591388402,-0.2627102298041736,-0.4444795213313358,0.1358746338711533,0.7240105882020955,0.2070601653087188,-0.0168142932072659,0.8881504766536521,0.8089567263124294,0.3223017890422384,-0.15813054995287,0.863775091861396,0.5305678172270722,0.1600475452863033,-0.4825813191914967,0.5174834897226472,819.1575091575091,803.8461538461539,796.1904761904763,813.5164835164835,703.919413919414,710.3663003663004,0.061707,0.020447,0.998169,2.243042,1.046753,1.091614,1.0,1.0,1.0,1.0,1.0,90.0,,1660301736.363
0.7505429938775031,-0.3604528702492806,-0.0726577037795589,0.7637711295472054,0.1787331591388402,-0.2627102298041736,-0.4444795213313358,0.1358746338711533,0.7240105882020955,0.2070601653087188,-0.0168142932072659,0.8881504766536521,0.8089567263124294,0.3223017890422384,-0.15813054995287,0.863775091861396,0.5305678172270722,0.1600475452863033,-0.4825813191914967,0.5174834897226472,803.4432234432235,799.0109890109891,796.996336996337,805.4578754578755,710.3663003663004,610.8424908424909,0.061707,0.020447,0.998169,2.243042,1.046753,1.091614,1.0,1.0,1.0,1.0,1.0,90.0,,1660301736.364
0.7505429938775031,-0.3604528702492806,-0.0726577037795589,0.7637711295472054,0.1787331591388402,-0.2627102298041736,-0.4444795213313358,0.1358746338711533,0.7240105882020955,0.2070601653087188,-0.0168142932072659,0.8881504766536521,0.8089567263124294,0.3223017890422384,-0.15813054995287,0.863775091861396,0.5305678172270722,0.1600475452863033,-0.4825813191914967,0.5174834897226472,784.5054945054945,804.6520146520147,797.3992673992674,810.6959706959707,820.7692307692308,761.1355311355312,0.061707,0.020447,0.998169,2.243042,1.046753,1.091614,1.0,1.0,1.0,1.0,1.0,90.0,,1660301736.364
0.7505429938775031,-0.3604528702492806,-0.0726577037795589,0.7637711295472054,0.1787331591388402,-0.2627102298041736,-0.4444795213313358,0.1358746338711533,0.7240105882020955,0.2070601653087188,-0.0168142932072659,0.8881504766536521,0.8089567263124294,0.3223017890422384,-0.15813054995287,0.863775091861396,0.5305678172270722,0.1600475452863033,-0.4825813191914967,0.5174834897226472,785.7142857142858,797.3992673992674,788.1318681318681,814.3223443223443,683.7728937728938,554.8351648351648,0.061707,0.020447,0.998169,2.243042,1.046753,1.091614,1.0,1.0,1.0,1.0,1.0,90.0,,1660301736.364
0.7505429938775031,-0.3604528702492806,-0.0726577037795589,0.7637711295472054,0.1787331591388402,-0.2627102298041736,-0.4444795213313358,0.1358746338711533,0.7240105882020955,0.2070601653087188,-0.0168142932072659,0.8881504766536521,0.8089567263124294,0.3223017890422384,-0.15813054995287,0.863775091861396,0.5305678172270722,0.1600475452863033,-0.4825813191914967,0.5174834897226472,803.4432234432235,799.0109890109891,789.7435897435897,817.948717948718,641.4652014652015,491.978021978022,0.061707,0.020447,0.998169,2.243042,1.046753,1.091614,1.0,1.0,1.0,1.0,1.0,90.0,,1660301736.365
0.7505429938775031,-0.3604528702492806,-0.0726577037795589,0.7637711295472054,0.1787331591388402,-0.2627102298041736,-0.4444795213313358,0.1358746338711533,0.7240105882020955,0.2070601653087188,-0.0168142932072659,0.8881504766536521,0.8089567263124294,0.3223017890422384,-0.15813054995287,0.863775091861396,0.5305678172270722,0.1600475452863033,-0.4825813191914967,0.5174834897226472,814.7252747252747,812.3076923076924,797.3992673992674,827.2161172161173,826.007326007326,735.3479853479854,0.05658,0.012207,0.990662,2.534637,0.844879,0.949554,1.0,1.0,1.0,1.0,1.0,90.0,,1660301736.407
0.7505429938775031,-0.3604528702492806,-0.0726577037795589,0.7637711295472054,0.1787331591388402,-0.2627102298041736,-0.4444795213313358,0.1358746338711533,0.7240105882020955,0.2070601653087188,-0.0168142932072659,0.8881504766536521,0.8089567263124294,0.3223017890422384,-0.15813054995287,0.863775091861396,0.5305678172270722,0.1600475452863033,-0.4825813191914967,0.5174834897226472,817.5457875457876,809.0842490842491,796.5934065934066,826.8131868131868,752.6739926739926,698.6813186813187,0.05658,0.012207,0.990662,2.534637,0.844879,0.949554,1.0,1.0,1.0,1.0,1.0,90.0,,1660301736.408
0.7505429938775031,-0.3604528702492806,-0.0726577037795589,0.7637711295472054,0.1787331591388402,-0.2627102298041736,-0.4444795213313358,0.1358746338711533,0.7240105882020955,0.2070601653087188,-0.0168142932072659,0.8881504766536521,0.8089567263124294,0.3223017890422384,-0.15813054995287,0.863775091861396,0.5305678172270722,0.1600475452863033,-0.4825813191914967,0.5174834897226472,807.0695970695971,803.4432234432235,797.3992673992674,811.0989010989011,746.6300366300367,577.3992673992674,0.05658,0.012207,0.990662,2.534637,0.844879,0.949554,1.0,1.0,1.0,1.0,1.0,90.0,,1660301736.408
0.7505429938775031,-0.3604528702492806,-0.0726577037795589,0.7637711295472054,0.1787331591388402,-0.2627102298041736,-0.4444795213313358,0.1358746338711533,0.7240105882020955,0.2070601653087188,-0.0168142932072659,0.8881504766536521,0.8089567263124294,0.3223017890422384,-0.15813054995287,0.863775091861396,0.5305678172270722,0.1600475452863033,-0.4825813191914967,0.5174834897226472,781.2820512820513,801.8315018315019,797.3992673992674,787.7289377289378,803.8461538461539,761.5384615384615,0.05658,0.012207,0.990662,2.534637,0.844879,0.949554,1.0,1.0,1.0,1.0,1.0,90.0,,1660301736.408
0.7505429938775031,-0.3604528702492806,-0.0726577037795589,0.7637711295472054,0.1787331591388402,-0.2627102298041736,-0.4444795213313358,0.1358746338711533,0.7240105882020955,0.2070601653087188,-0.0168142932072659,0.8881504766536521,0.8089567263124294,0.3223017890422384,-0.15813054995287,0.863775091861396,0.5305678172270722,0.1600475452863033,-0.4825813191914967,0.5174834897226472,784.5054945054945,803.8461538461539,797.8021978021978,782.893772893773,842.1245421245421,1012.967032967033,0.05658,0.012207,0.990662,2.534637,0.844879,0.949554,1.0,1.0,1.0,1.0,1.0,90.0,,1660301736.409
0.7505429938775031,-0.3604528702492806,-0.0726577037795589,0.7637711295472054,0.1787331591388402,-0.2627102298041736,-0.4444795213313358,0.1358746338711533,0.7240105882020955,0.2070601653087188,-0.0168142932072659,0.8881504766536521,0.8089567263124294,0.3223017890422384,-0.15813054995287,0.863775091861396,0.5305678172270722,0.1600475452863033,-0.4825813191914967,0.5174834897226472,803.4432234432235,811.9047619047619,800.2197802197802,796.996336996337,930.3663003663004,1105.641025641026,0.05658,0.012207,0.990662,2.534637,0.844879,0.949554,1.0,1.0,1.0,1.0,1.0,90.0,,1660301736.409
0.7505429938775031,-0.3604528702492806,-0.0726577037795589,0.7637711295472054,0.1787331591388402,-0.2627102298041736,-0.4444795213313358,0.1358746338711533,0.7240105882020955,0.2070601653087188,-0.0168142932072659,0.8881504766536521,0.8089567263124294,0.3223017890422384,-0.15813054995287,0.863775091861396,0.5305678172270722,0.1600475452863033,-0.4825813191914967,0.5174834897226472,810.6959706959707,812.3076923076924,799.4139194139194,792.5641025641025,887.2527472527473,1289.377289377289,0.05658,0.012207,0.990662,2.534637,0.844879,0.949554,1.0,1.0,1.0,1.0,1.0,90.0,,1660301736.409
0.7505429938775031,-0.3604528702492806,-0.0726577037795589,0.7637711295472054,0.1787331591388402,-0.2627102298041736,-0.4444795213313358,0.1358746338711533,0.7240105882020955,0.2070601653087188,-0.0168142932072659,0.8881504766536521,0.8089567263124294,0.3223017890422384,-0.15813054995287,0.863775091861396,0.5305678172270722,0.1600475452863033,-0.4825813191914967,0.5174834897226472,791.3553113553114,796.996336996337,800.6227106227107,784.1025641025641,812.3076923076924,1149.56043956044,0.05658,0.012207,0.990662,2.534637,0.844879,0.949554,1.0,1.0,1.0,1.0,1.0,90.0,,1660301736.41
0.7505429938775031,-0.3604528702492806,-0.0726577037795589,0.7637711295472054,0.1787331591388402,-0.2627102298041736,-0.4444795213313358,0.1358746338711533,0.7240105882020955,0.2070601653087188,-0.0168142932072659,0.8881504766536521,0.8089567263124294,0.3223017890422384,-0.15813054995287,0.863775091861396,0.5305678172270722,0.1600475452863033,-0.4825813191914967,0.5174834897226472,779.2673992673992,792.1611721611722,798.2051282051282,785.3113553113553,908.6080586080586,877.5824175824176,0.05658,0.012207,0.990662,2.534637,0.844879,0.949554,1.0,1.0,1.0,1.0,1.0,90.0,,1660301736.41
0.7505429938775031,-0.3604528702492806,-0.0726577037795589,0.7637711295472054,0.1787331591388402,-0.2627102298041736,-0.4444795213313358,0.1358746338711533,0.7240105882020955,0.2070601653087188,-0.0168142932072659,0.8881504766536521,0.8089567263124294,0.3223017890422384,-0.15813054995287,0.863775091861396,0.5305678172270722,0.1600475452863033,-0.4825813191914967,0.5174834897226472,783.6996336996338,794.981684981685,794.981684981685,782.0879120879121,901.7582417582418,776.0439560439561,0.05658,0.012207,0.990662,2.534637,0.844879,0.949554,1.0,1.0,1.0,1.0,1.0,90.0,,1660301736.41
0.7505429938775031,-0.3604528702492806,-0.0726577037795589,0.7637711295472054,0.1787331591388402,-0.2627102298041736,-0.4444795213313358,0.1358746338711533,0.7240105882020955,0.2070601653087188,-0.0168142932072659,0.8881504766536521,0.8089567263124294,0.3223017890422384,-0.15813054995287,0.863775091861396,0.5305678172270722,0.1600475452863033,-0.4825813191914967,0.5174834897226472,792.5641025641025,791.7582417582418,796.996336996337,783.6996336996338,872.7472527472528,702.7106227106227,0.05658,0.012207,0.990662,2.534637,0.844879,0.949554,1.0,1.0,1.0,1.0,1.0,90.0,,1660301736.411
0.7505429938775031,-0.3604528702492806,-0.0726577037795589,0.7637711295472054,0.1787331591388402,-0.2627102298041736,-0.4444795213313358,0.1358746338711533,0.7240105882020955,0.2070601653087188,-0.0168142932072659,0.8881504766536521,0.8089567263124294,0.3223017890422384,-0.15813054995287,0.863775091861396,0.5305678172270722,0.1600475452863033,-0.4825813191914967,0.5174834897226472,800.2197802197802,792.967032967033,794.5787545787546,778.4615384615385,940.03663003663,704.3223443223443,0.05658,0.012207,0.990662,2.534637,0.844879,0.949554,1.0,1.0,1.0,1.0,1.0,90.0,,1660301736.411
0.7505429938775031,-0.3604528702492806,-0.0726577037795589,0.7637711295472054,0.1787331591388402,-0.2627102298041736,-0.4444795213313358,0.1358746338711533,0.7240105882020955,0.2070601653087188,-0.0168142932072659,0.8881504766536521,0.8089567263124294,0.3223017890422384,-0.15813054995287,0.863775091861396,0.5305678172270722,0.1600475452863033,-0.4825813191914967,0.5174834897226472,797.3992673992674,795.7875457875458,796.5934065934066,796.996336996337,901.7582417582418,728.0952380952381,0.06781,0.006897,0.990417,2.572021,-0.441132,2.347717,1.0,1.0,1.0,1.0,1.0,90.0,,1660301736.455
0.7077190961769964,-0.3365562478472151,-0.1049812289760995,0.7288912089943119,0.1447512738934351,-0.3013788743164347,-0.4560562906323276,0.1106525169107796,0.7240105882020955,0.2276348801395933,0.0105062385918416,0.8881504766536521,0.8188112313660735,0.3113963508970268,-0.1519196230186546,0.8511929854305125,0.5475230350450253,0.1654006671808665,-0.4740417286970601,0.5592123140751888,790.1465201465202,795.3846153846154,799.0109890109891,800.6227106227107,810.2930402930403,680.5494505494506,0.06781,0.006897,0.990417,2.572021,-0.441132,2.347717,1.0,1.0,1.0,1.0,1.0,90.0,,1660301736.456
0.7077190961769964,-0.3365562478472151,-0.1049812289760995,0.7288912089943119,0.1447512738934351,-0.3013788743164347,-0.4560562906323276,0.1106525169107796,0.7240105882020955,0.2276348801395933,0.0105062385918416,0.8881504766536521,0.8188112313660735,0.3113963508970268,-0.1519196230186546,0.8511929854305125,0.5475230350450253,0.1654006671808665,-0.4740417286970601,0.5592123140751888,795.3846153846154,794.1758241758242,796.996336996337,801.8315018315019,818.3516483516484,609.6336996336996,0.06781,0.006897,0.990417,2.572021,-0.441132,2.347717,1.0,1.0,1.0,1.0,1.0,90.0,,1660301736.457
0.7077190961769964,-0.3365562478472151,-0.1049812289760995,0.7288912089943119,0.1447512738934351,-0.3013788743164347,-0.4560562906323276,0.1106525169107796,0.7240105882020955,0.2276348801395933,0.0105062385918416,0.8881504766536521,0.8188112313660735,0.3113963508970268,-0.1519196230186546,0.8511929854305125,0.5475230350450253,0.1654006671808665,-0.4740417286970601,0.5592123140751888,803.040293040293,796.5934065934066,795.3846153846154,808.2783882783883,859.4505494505495,618.0952380952381,0.06781,0.006897,0.990417,2.572021,-0.441132,2.347717,1.0,1.0,1.0,1.0,1.0,90.0,,1660301736.457
0.7077190961769964,-0.3365562478472151,-0.1049812289760995,0.7288912089943119,0.1447512738934351,-0.3013788743164347,-0.4560562906323276,0.1106525169107796,0.7240105882020955,0.2276348801395933,0.0105062385918416,0.8881504766536521,0.8188112313660735,0.3113963508970268,-0.1519196230186546,0.8511929854305125,0.5475230350450253,0.1654006671808665,-0.4740417286970601,0.5592123140751888,803.4432234432235,803.040293040293,793.7728937728938,794.5787545787546,836.0805860805862,696.2637362637363,0.06781,0.006897,0.990417,2.572021,-0.441132,2.347717,1.0,1.0,1.0,1.0,1.0,90.0,,1660301736.458
0.7077190961769964,-0.3365562478472151,-0.1049812289760995,0.7288912089943119,0.1447512738934351,-0.3013788743164347,-0.4560562906323276,0.1106525169107796,0.7240105882020955,0.2276348801395933,0.0105062385918416,0.8881504766536521,0.8188112313660735,0.3113963508970268,-0.1519196230186546,0.8511929854305125,0.5475230350450253,0.1654006671808665,-0.4740417286970601,0.5592123140751888,813.5164835164835,809.0842490842491,794.5787545787546,801.8315018315019,828.021978021978,1003.296703296703,0.06781,0.006897,0.990417,2.572021,-0.441132,2.347717,1.0,1.0,1.0,1.0,1.0,90.0,,1660301736.458
0.7077190961769964,-0.3365562478472151,-0.1049812289760995,0.7288912089943119,0.1447512738934351,-0.3013788743164347,-0.4560562906323276,0.1106525169107796,0.7240105882020955,0.2276348801395933,0.0105062385918416,0.8881504766536521,0.8188112313660735,0.3113963508970268,-0.1519196230186546,0.8511929854305125,0.5475230350450253,0.1654006671808665,-0.4740417286970601,0.5592123140751888,796.996336996337,808.6813186813187,794.1758241758242,812.7106227106227,831.6483516483516,1254.322344322344,0.06781,0.006897,0.990417,2.572021,-0.441132,2.347717,1.0,1.0,1.0,1.0,1.0,90.0,,1660301736.458
0.7077190961769964,-0.3365562478472151,-0.1049812289760995,0.7288912089943119,0.1447512738934351,-0.3013788743164347,-0.4560562906323276,0.1106525169107796,0.7240105882020955,0.2276348801395933,0.0105062385918416,0.8881504766536521,0.8188112313660735,0.3113963508970268,-0.1519196230186546,0.8511929854305125,0.5475230350450253,0.1654006671808665,-0.4740417286970601,0.5592123140751888,767.985347985348,797.8021978021978,792.967032967033,792.5641025641025,833.6630036630037,943.6630036630036,0.06781,0.006897,0.990417,2.572021,-0.441132,2.347717,1.0,1.0,1.0,1.0,1.0,90.0,,1660301736.459
0.7077190961769964,-0.3365562478472151,-0.1049812289760995,0.7288912089943119,0.1447512738934351,-0.3013788743164347,-0.4560562906323276,0.1106525169107796,0.7240105882020955,0.2276348801395933,0.0105062385918416,0.8881504766536521,0.8188112313660735,0.3113963508970268,-0.1519196230186546,0.8511929854305125,0.5475230350450253,0.1654006671808665,-0.4740417286970601,0.5592123140751888,780.8791208791209,799.0109890109891,796.1904761904763,780.8791208791209,825.6043956043957,834.4688644688645,0.06781,0.006897,0.990417,2.572021,-0.441132,2.347717,1.0,1.0,1.0,1.0,1.0,90.0,,1660301736.459
0.7077190961769964,-0.3365562478472151,-0.1049812289760995,0.7288912089943119,0.1447512738934351,-0.3013788743164347,-0.4560562906323276,0.1106525169107796,0.7240105882020955,0.2276348801395933,0.0105062385918416,0.8881504766536521,0.8188112313660735,0.3113963508970268,-0.1519196230186546,0.8511929854305125,0.5475230350450253,0.1654006671808665,-0.4740417286970601,0.5592123140751888,787.7289377289378,801.025641025641,796.996336996337,790.1465201465202,833.2600732600733,838.0952380952381,0.06781,0.006897,0.990417,2.572021,-0.441132,2.347717,1.0,1.0,1.0,1.0,1.0,90.0,,1660301736.459
0.7077190961769964,-0.3365562478472151,-0.1049812289760995,0.7288912089943119,0.1447512738934351,-0.3013788743164347,-0.4560562906323276,0.1106525169107796,0.7240105882020955,0.2276348801395933,0.0105062385918416,0.8881504766536521,0.8188112313660735,0.3113963508970268,-0.1519196230186546,0.8511929854305125,0.5475230350450253,0.1654006671808665,-0.4740417286970601,0.5592123140751888,778.0586080586081,798.6080586080586,796.996336996337,783.6996336996338,814.7252747252747,623.3333333333334,0.06781,0.006897,0.990417,2.572021,-0.441132,2.347717,1.0,1.0,1.0,1.0,1.0,90.0,,1660301736.46
0.7077190961769964,-0.3365562478472151,-0.1049812289760995,0.7288912089943119,0.1447512738934351,-0.3013788743164347,-0.4560562906323276,0.1106525169107796,0.7240105882020955,0.2276348801395933,0.0105062385918416,0.8881504766536521,0.8188112313660735,0.3113963508970268,-0.1519196230186546,0.8511929854305125,0.5475230350450253,0.1654006671808665,-0.4740417286970601,0.5592123140751888,788.1318681318681,793.7728937728938,797.3992673992674,792.5641025641025,787.7289377289378,552.014652014652,0.06781,0.006897,0.990417,2.572021,-0.441132,2.347717,1.0,1.0,1.0,1.0,1.0,90.0,,1660301736.46
0.7077190961769964,-0.3365562478472151,-0.1049812289760995,0.7288912089943119,0.1447512738934351,-0.3013788743164347,-0.4560562906323276,0.1106525169107796,0.7240105882020955,0.2276348801395933,0.0105062385918416,0.8881504766536521,0.8188112313660735,0.3113963508970268,-0.1519196230186546,0.8511929854305125,0.5475230350450253,0.1654006671808665,-0.4740417286970601,0.5592123140751888,790.1465201465202,792.1611721611722,793.7728937728938,801.025641025641,845.3479853479854,695.4578754578755,0.070251,0.008545,1.003296,4.269257,0.067291,3.39447,1.0,1.0,1.0,1.0,1.0,90.0,,1660301736.503
0.7077190961769964,-0.3365562478472151,-0.1049812289760995,0.7288912089943119,0.1447512738934351,-0.3013788743164347,-0.4560562906323276,0.1106525169107796,0.7240105882020955,0.2276348801395933,0.0105062385918416,0.8881504766536521,0.8188112313660735,0.3113963508970268,-0.1519196230186546,0.8511929854305125,0.5475230350450253,0.1654006671808665,-0.4740417286970601,0.5592123140751888,788.5347985347986,805.4578754578755,795.3846153846154,799.8168498168499,843.7362637362637,760.3296703296703,0.070251,0.008545,1.003296,4.269257,0.067291,3.39447,1.0,1.0,1.0,1.0,1.0,90.0,,1660301736.504
0.7077190961769964,-0.3365562478472151,-0.1049812289760995,0.7288912089943119,0.1447512738934351,-0.3013788743164347,-0.4560562906323276,0.1106525169107796,0.7240105882020955,0.2276348801395933,0.0105062385918416,0.8881504766536521,0.8188112313660735,0.3113963508970268,-0.1519196230186546,0.8511929854305125,0.5475230350450253,0.1654006671808665,-0.4740417286970601,0.5592123140751888,798.6080586080586,809.4871794871796,798.2051282051282,800.2197802197802,838.4981684981685,620.5128205128206,0.070251,0.008545,1.003296,4.269257,0.067291,3.39447,1.0,1.0,1.0,1.0,1.0,90.0,,1660301736.504
0.7077190961769964,-0.3365562478472151,-0.1049812289760995,0.7288912089943119,0.1447512738934351,-0.3013788743164347,-0.4560562906323276,0.1106525169107796,0.7240105882020955,0.2276348801395933,0.0105062385918416,0.8881504766536521,0.8188112313660735,0.3113963508970268,-0.1519196230186546,0.8511929854305125,0.5475230350450253,0.1654006671808665,-0.4740417286970601,0.5592123140751888,795.3846153846154,801.025641025641,796.1904761904763,792.1611721611722,783.2967032967033,669.6703296703297,0.070251,0.008545,1.003296,4.269257,0.067291,3.39447,1.0,1.0,1.0,1.0,1.0,90.0,,1660301736.504
0.7077190961769964,-0.3365562478472151,-0.1049812289760995,0.7288912089943119,0.1447512738934351,-0.3013788743164347,-0.4560562906323276,0.1106525169107796,0.7240105882020955,0.2276348801395933,0.0105062385918416,0.8881504766536521,0.8188112313660735,0.3113963508970268,-0.1519196230186546,0.8511929854305125,0.5475230350450253,0.1654006671808665,-0.4740417286970601,0.5592123140751888,793.7728937728938,800.6227106227107,797.3992673992674,792.967032967033,721.6483516483516,871.1355311355312,0.070251,0.008545,1.003296,4.269257,0.067291,3.39447,1.0,1.0,1.0,1.0,1.0,90.0,,1660301736.505
0.7077190961769964,-0.3365562478472151,-0.1049812289760995,0.7288912089943119,0.1447512738934351,-0.3013788743164347,-0.4560562906323276,0.1106525169107796,0.7240105882020955,0.2276348801395933,0.0105062385918416,0.8881504766536521,0.8188112313660735,0.3113963508970268,-0.1519196230186546,0.8511929854305125,0.5475230350450253,0.1654006671808665,-0.4740417286970601,0.5592123140751888,801.8315018315019,798.6080586080586,799.8168498168499,787.7289377289378,725.6776556776557,968.6446886446888,0.070251,0.008545,1.003296,4.269257,0.067291,3.39447,1.0,1.0,1.0,1.0,1.0,90.0,,1660301736.505
0.7077190961769964,-0.3365562478472151,-0.1049812289760995,0.7288912089943119,0.1447512738934351,-0.3013788743164347,-0.4560562906323276,0.1106525169107796,0.7240105882020955,0.2276348801395933,0.0105062385918416,0.8881504766536521,0.8188112313660735,0.3113963508970268,-0.1519196230186546,0.8511929854305125,0.5475230350450253,0.1654006671808665,-0.4740417286970601,0.5592123140751888,812.3076923076924,803.040293040293,796.1904761904763,792.967032967033,698.6813186813187,1089.52380952381,0.070251,0.008545,1.003296,4.269257,0.067291,3.39447,1.0,1.0,1.0,1.0,1.0,90.0,,1660301736.505
0.7077190961769964,-0.3365562478472151,-0.1049812289760995,0.7288912089943119,0.1447512738934351,-0.3013788743164347,-0.4560562906323276,0.1106525169107796,0.7240105882020955,0.2276348801395933,0.0105062385918416,0.8881504766536521,0.8188112313660735,0.3113963508970268,-0.1519196230186546,0.8511929854305125,0.5475230350450253,0.1654006671808665,-0.4740417286970601,0.5592123140751888,812.3076923076924,798.6080586080586,793.7728937728938,804.2490842490843,701.5018315018315,799.8168498168499,0.070251,0.008545,1.003296,4.269257,0.067291,3.39447,1.0,1.0,1.0,1.0,1.0,90.0,,1660301736.506
0.7077190961769964,-0.3365562478472151,-0.1049812289760995,0.7288912089943119,0.1447512738934351,-0.3013788743164347,-0.4560562906323276,0.1106525169107796,0.7240105882020955,0.2276348801395933,0.0105062385918416,0.8881504766536521,0.8188112313660735,0.3113963508970268,-0.1519196230186546,0.8511929854305125,0.5475230350450253,0.1654006671808665,-0.4740417286970601,0.5592123140751888,787.3260073260074,790.5494505494506,792.1611721611722,799.8168498168499,767.1794871794872,629.3772893772893,0.070251,0.008545,1.003296,4.269257,0.067291,3.39447,1.0,1.0,1.0,1.0,1.0,90.0,,1660301736.506
0.7077190961769964,-0.3365562478472151,-0.1049812289760995,0.7288912089943119,0.1447512738934351,-0.3013788743164347,-0.4560562906323276,0.1106525169107796,0.7240105882020955,0.2276348801395933,0.0105062385918416,0.8881504766536521,0.8188112313660735,0.3113963508970268,-0.1519196230186546,0.8511929854305125,0.5475230350450253,0.1654006671808665,-0.4740417286970601,0.5592123140751888,762.7472527472528,787.7289377289378,790.1465201465202,784.9084249084249,707.948717948718,547.1794871794872,0.070251,0.008545,1.003296,4.269257,0.067291,3.39447,1.0,1.0,1.0,1.0,1.0,90.0,,1660301736.507
0.7077190961769964,-0.3365562478472151,-0.1049812289760995,0.7288912089943119,0.1447512738934351,-0.3013788743164347,-0.4560562906323276,0.1106525169107796,0.7240105882020955,0.2276348801395933,0.0105062385918416,0.8881504766536521,0.8188112313660735,0.3113963508970268,-0.1519196230186546,0.8511929854305125,0.5475230350450253,0.1654006671808665,-0.4740417286970601,0.5592123140751888,769.5970695970697,789.3406593406594,789.7435897435897,767.985347985348,707.1428571428571,686.5934065934066,0.070251,0.008545,1.003296,4.269257,0.067291,3.39447,1.0,1.0,1.0,1.0,1.0,90.0,,1660301736.507
0.7077190961769964,-0.3365562478472151,-0.1049812289760995,0.7288912089943119,0.1447512738934351,-0.3013788743164347,-0.4560562906323276,0.1106525169107796,0.7240105882020955,0.2276348801395933,0.0105062385918416,0.8881504766536521,0.8188112313660735,0.3113963508970268,-0.1519196230186546,0.8511929854305125,0.5475230350450253,0.1654006671808665,-0.4740417286970601,0.5592123140751888,788.9377289377289,794.5787545787546,793.7728937728938,781.2820512820513,802.2344322344322,813.1135531135532,0.070251,0.008545,1.003296,4.269257,0.067291,3.39447,1.0,1.0,1.0,1.0,1.0,90.0,,1660301736.507
0.7077190961769964,-0.3365562478472151,-0.1049812289760995,0.7288912089943119,0.1447512738934351,-0.3013788743164347,-0.4560562906323276,0.1106525169107796,0.7240105882020955,0.2276348801395933,0.0105062385918416,0.8881504766536521,0.8188112313660735,0.3113963508970268,-0.1519196230186546,0.8511929854305125,0.5475230350450253,0.1654006671808665,-0.4740417286970601,0.5592123140751888,799.4139194139194,794.981684981685,799.4139194139194,800.6227106227107,784.5054945054945,644.2857142857143,0.064453,0.022766,0.996826,3.775787,0.762634,2.549591,1.0,1.0,1.0,1.0,1.0,90.0,,1660301736.551
0.7077190961769964,-0.3365562478472151,-0.1049812289760995,0.7288912089943119,0.1447512738934351,-0.3013788743164347,-0.4560562906323276,0.1106525169107796,0.7240105882020955,0.2276348801395933,0.0105062385918416,0.8881504766536521,0.8188112313660735,0.3113963508970268,-0.1519196230186546,0.8511929854305125,0.5475230350450253,0.1654006671808665,-0.4740417286970601,0.5592123140751888,804.2490842490843,792.967032967033,801.025641025641,799.4139194139194,769.5970695970697,616.886446886447,0.064453,0.022766,0.996826,3.775787,0.762634,2.549591,1.0,1.0,1.0,1.0,1.0,90.0,,1660301736.552
0.7077190961769964,-0.3365562478472151,-0.1049812289760995,0.7288912089943119,0.1447512738934351,-0.3013788743164347,-0.4560562906323276,0.1106525169107796,0.7240105882020955,0.2276348801395933,0.0105062385918416,0.8881504766536521,0.8188112313660735,0.3113963508970268,-0.1519196230186546,0.8511929854305125,0.5475230350450253,0.1654006671808665,-0.4740417286970601,0.5592123140751888,800.2197802197802,793.7728937728938,796.996336996337,784.5054945054945,826.4102564102565,767.5824175824176,0.064453,0.022766,0.996826,3.775787,0.762634,2.549591,1.0,1.0,1.0,1.0,1.0,90.0,,1660301736.552
0.6566589691894361,-0.3043658374219282,-0.1447636879850834,0.6988292584822121,0.1047811976206491,-0.3349317782194173,-0.4558789565502813,0.0922651188992028,0.7240105882020955,0.2344835023693227,0.0248090476175454,0.8881504766536521,0.8286789419975988,0.292250096526898,-0.1454034574419877,0.8454043103594555,0.5620906872728466,0.1717080235037671,-0.4798928581201853,0.596185906247985,790.5494505494506,803.040293040293,791.3553113553114,784.1025641025641,826.4102564102565,771.6117216117216,0.064453,0.022766,0.996826,3.775787,0.762634,2.549591,1.0,1.0,1.0,1.0,1.0,90.0,,1660301736.552
0.6566589691894361,-0.3043658374219282,-0.1447636879850834,0.6988292584822121,0.1047811976206491,-0.3349317782194173,-0.4558789565502813,0.0922651188992028,0.7240105882020955,0.2344835023693227,0.0248090476175454,0.8881504766536521,0.8286789419975988,0.292250096526898,-0.1454034574419877,0.8454043103594555,0.5620906872728466,0.1717080235037671,-0.4798928581201853,0.596185906247985,789.3406593406594,802.6373626373627,795.7875457875458,796.996336996337,792.5641025641025,710.7692307692308,0.064453,0.022766,0.996826,3.775787,0.762634,2.549591,1.0,1.0,1.0,1.0,1.0,90.0,,1660301736.554
0.6566589691894361,-0.3043658374219282,-0.1447636879850834,0.6988292584822121,0.1047811976206491,-0.3349317782194173,-0.4558789565502813,0.0922651188992028,0.7240105882020955,0.2344835023693227,0.0248090476175454,0.8881504766536521,0.8286789419975988,0.292250096526898,-0.1454034574419877,0.8454043103594555,0.5620906872728466,0.1717080235037671,-0.4798928581201853,0.596185906247985,794.5787545787546,800.6227106227107,802.6373626373627,804.2490842490843,763.5531135531136,971.868131868132,0.064453,0.022766,0.996826,3.775787,0.762634,2.549591,1.0,1.0,1.0,1.0,1.0,90.0,,1660301736.554
0.6566589691894361,-0.3043658374219282,-0.1447636879850834,0.6988292584822121,0.1047811976206491,-0.3349317782194173,-0.4558789565502813,0.0922651188992028,0.7240105882020955,0.2344835023693227,0.0248090476175454,0.8881504766536521,0.8286789419975988,0.292250096526898,-0.1454034574419877,0.8454043103594555,0.5620906872728466,0.1717080235037671,-0.4798928581201853,0.596185906247985,789.7435897435897,800.6227106227107,801.025641025641,795.7875457875458,784.9084249084249,1052.051282051282,0.064453,0.022766,0.996826,3.775787,0.762634,2.549591,1.0,1.0,1.0,1.0,1.0,90.0,,1660301736.554
0.6566589691894361,-0.3043658374219282,-0.1447636879850834,0.6988292584822121,0.1047811976206491,-0.3349317782194173,-0.4558789565502813,0.0922651188992028,0.7240105882020955,0.2344835023693227,0.0248090476175454,0.8881504766536521,0.8286789419975988,0.292250096526898,-0.1454034574419877,0.8454043103594555,0.5620906872728466,0.1717080235037671,-0.4798928581201853,0.596185906247985,788.1318681318681,788.5347985347986,796.5934065934066,786.1172161172161,848.974358974359,832.8571428571429,0.064453,0.022766,0.996826,3.775787,0.762634,2.549591,1.0,1.0,1.0,1.0,1.0,90.0,,1660301736.555
0.6566589691894361,-0.3043658374219282,-0.1447636879850834,0.6988292584822121,0.1047811976206491,-0.3349317782194173,-0.4558789565502813,0.0922651188992028,0.7240105882020955,0.2344835023693227,0.0248090476175454,0.8881504766536521,0.8286789419975988,0.292250096526898,-0.1454034574419877,0.8454043103594555,0.5620906872728466,0.1717080235037671,-0.4798928581201853,0.596185906247985,775.2380952380953,778.0586080586081,791.3553113553114,796.5934065934066,824.3956043956044,656.3736263736264,0.064453,0.022766,0.996826,3.775787,0.762634,2.549591,1.0,1.0,1.0,1.0,1.0,90.0,,1660301736.555
0.6566589691894361,-0.3043658374219282,-0.1447636879850834,0.6988292584822121,0.1047811976206491,-0.3349317782194173,-0.4558789565502813,0.0922651188992028,0.7240105882020955,0.2344835023693227,0.0248090476175454,0.8881504766536521,0.8286789419975988,0.292250096526898,-0.1454034574419877,0.8454043103594555,0.5620906872728466,0.1717080235037671,-0.4798928581201853,0.596185906247985,778.8644688644689,785.7142857142858,790.1465201465202,779.2673992673992,824.7985347985348,698.2783882783883,0.064453,0.022766,0.996826,3.775787,0.762634,2.549591,1.0,1.0,1.0,1.0,1.0,90.0,,1660301736.555
0.6566589691894361,-0.3043658374219282,-0.1447636879850834,0.6988292584822121,0.1047811976206491,-0.3349317782194173,-0.4558789565502813,0.0922651188992028,0.7240105882020955,0.2344835023693227,0.0248090476175454,0.8881504766536521,0.8286789419975988,0.292250096526898,-0.1454034574419877,0.8454043103594555,0.5620906872728466,0.1717080235037671,-0.4798928581201853,0.596185906247985,801.025641025641,793.3699633699634,791.7582417582418,782.893772893773,877.985347985348,659.5970695970697,0.064453,0.022766,0.996826,3.775787,0.762634,2.549591,1.0,1.0,1.0,1.0,1.0,90.0,,1660301736.556
