Delta_TP9,Delta_AF7,Delta_AF8,Delta_TP10,Theta_TP9,Theta_AF7,Theta_AF8,Theta_TP10,Alpha_TP9,Alpha_AF7,Alpha_AF8,Alpha_TP10,Beta_TP9,Beta_AF7,Beta_AF8,Beta_TP10,Gamma_TP9,Gamma_AF7,Gamma_AF8,Gamma_TP10,RAW_TP9,RAW_AF7,RAW_AF8,RAW_TP10,AUX_RIGHT,AUX_LEFT,Accelerometer_X,Accelerometer_Y,Accelerometer_Z,Gyro_X,Gyro_Y,Gyro_Z,HeadBandOn,HSI_TP9,HSI_AF7,HSI_AF8,HSI_TP10,Battery,Elements,time
0.513439740768635,-0.3133724379796286,0.1999526782452412,0.649465149707302,0.1852849135179981,-0.2623008164879392,-0.0198193303928349,0.1665341093753824,0.5074468026407338,0.2181793021819221,0.2485973414221618,0.6925745222978431,0.3702990781931796,0.0390733178162364,0.2954842442642631,0.4744047594554779,0.1690815331044862,-0.2423205970081887,-0.1300248566152117,0.4762662509988042,786.1172161172161,787.3260073260074,794.5787545787546,778.0586080586081,720.4395604395604,662.8205128205128,-0.14209,-0.050415,0.974182,4.590759,0.448608,0.530853,1.0,1.0,1.0,1.0,1.0,75.0,,1637402255.254
0.513439740768635,-0.3133724379796286,0.1999526782452412,0.649465149707302,0.1852849135179981,-0.2623008164879392,-0.0198193303928349,0.1665341093753824,0.5074468026407338,0.2181793021819221,0.2485973414221618,0.6925745222978431,0.3702990781931796,0.0390733178162364,0.2954842442642631,0.4744047594554779,0.1690815331044862,-0.2423205970081887,-0.1300248566152117,0.4762662509988042,790.1465201465202,792.5641025641025,793.7728937728938,787.3260073260074,731.7216117216118,751.4652014652015,-0.14209,-0.050415,0.974182,4.590759,0.448608,0.530853,1.0,1.0,1.0,1.0,1.0,75.0,,1637402255.255
0.513439740768635,-0.3133724379796286,0.1999526782452412,0.649465149707302,0.1852849135179981,-0.2623008164879392,-0.0198193303928349,0.1665341093753824,0.5074468026407338,0.2181793021819221,0.2485973414221618,0.6925745222978431,0.3702990781931796,0.0390733178162364,0.2954842442642631,0.4744047594554779,0.1690815331044862,-0.2423205970081887,-0.1300248566152117,0.4762662509988042,791.7582417582418,799.0109890109891,799.8168498168499,787.3260073260074,773.2234432234433,947.6923076923076,-0.14209,-0.050415,0.974182,4.590759,0.448608,0.530853,1.0,1.0,1.0,1.0,1.0,75.0,,1637402255.255
0.513439740768635,-0.3133724379796286,0.1999526782452412,0.649465149707302,0.1852849135179981,-0.2623008164879392,-0.0198193303928349,0.1665341093753824,0.5074468026407338,0.2181793021819221,0.2485973414221618,0.6925745222978431,0.3702990781931796,0.0390733178162364,0.2954842442642631,0.4744047594554779,0.1690815331044862,-0.2423205970081887,-0.1300248566152117,0.4762662509988042,796.1904761904763,796.5934065934066,800.2197802197802,792.5641025641025,830.8424908424909,811.9047619047619,-0.14209,-0.050415,0.974182,4.590759,0.448608,0.530853,1.0,1.0,1.0,1.0,1.0,75.0,,1637402255.255
0.513439740768635,-0.3133724379796286,0.1999526782452412,0.649465149707302,0.1852849135179981,-0.2623008164879392,-0.0198193303928349,0.1665341093753824,0.5074468026407338,0.2181793021819221,0.2485973414221618,0.6925745222978431,0.3702990781931796,0.0390733178162364,0.2954842442642631,0.4744047594554779,0.1690815331044862,-0.2423205970081887,-0.1300248566152117,0.4762662509988042,803.040293040293,790.1465201465202,794.1758241758242,801.025641025641,879.1941391941392,784.1025641025641,-0.14209,-0.050415,0.974182,4.590759,0.448608,0.530853,1.0,1.0,1.0,1.0,1.0,75.0,,1637402255.256
0.4849267564422889,-0.3561797536798516,0.1844064652335035,0.6188910762365121,0.2062260423988001,-0.302301682195308,-0.0261376146035751,0.1884907205375688,0.5058659457305493,0.189219294689695,0.2168561287800576,0.654964179965198,0.3823848035636572,0.0338853919499587,0.298861738885939,0.4560193897629087,0.1708061632275198,-0.2277569141712031,-0.1335776072581941,0.4552457825466398,801.8315018315019,790.1465201465202,794.1758241758242,799.8168498168499,815.5311355311355,935.6043956043956,-0.14209,-0.050415,0.974182,4.590759,0.448608,0.530853,1.0,1.0,1.0,1.0,1.0,75.0,,1637402255.256
0.4849267564422889,-0.3561797536798516,0.1844064652335035,0.6188910762365121,0.2062260423988001,-0.302301682195308,-0.0261376146035751,0.1884907205375688,0.5058659457305493,0.189219294689695,0.2168561287800576,0.654964179965198,0.3823848035636572,0.0338853919499587,0.298861738885939,0.4560193897629087,0.1708061632275198,-0.2277569141712031,-0.1335776072581941,0.4552457825466398,807.0695970695971,792.967032967033,794.981684981685,800.2197802197802,706.3369963369963,1016.190476190476,-0.14209,-0.050415,0.974182,4.590759,0.448608,0.530853,1.0,1.0,1.0,1.0,1.0,75.0,,1637402255.257
0.4849267564422889,-0.3561797536798516,0.1844064652335035,0.6188910762365121,0.2062260423988001,-0.302301682195308,-0.0261376146035751,0.1884907205375688,0.5058659457305493,0.189219294689695,0.2168561287800576,0.654964179965198,0.3823848035636572,0.0338853919499587,0.298861738885939,0.4560193897629087,0.1708061632275198,-0.2277569141712031,-0.1335776072581941,0.4552457825466398,796.996336996337,792.1611721611722,791.3553113553114,794.1758241758242,749.047619047619,854.6153846153846,-0.14209,-0.050415,0.974182,4.590759,0.448608,0.530853,1.0,1.0,1.0,1.0,1.0,75.0,,1637402255.258
0.4849267564422889,-0.3561797536798516,0.1844064652335035,0.6188910762365121,0.2062260423988001,-0.302301682195308,-0.0261376146035751,0.1884907205375688,0.5058659457305493,0.189219294689695,0.2168561287800576,0.654964179965198,0.3823848035636572,0.0338853919499587,0.298861738885939,0.4560193897629087,0.1708061632275198,-0.2277569141712031,-0.1335776072581941,0.4552457825466398,786.5201465201466,789.7435897435897,791.7582417582418,791.3553113553114,826.4102564102565,647.9120879120879,-0.14209,-0.050415,0.974182,4.590759,0.448608,0.530853,1.0,1.0,1.0,1.0,1.0,75.0,,1637402255.258
0.4849267564422889,-0.3561797536798516,0.1844064652335035,0.6188910762365121,0.2062260423988001,-0.302301682195308,-0.0261376146035751,0.1884907205375688,0.5058659457305493,0.189219294689695,0.2168561287800576,0.654964179965198,0.3823848035636572,0.0338853919499587,0.298861738885939,0.4560193897629087,0.1708061632275198,-0.2277569141712031,-0.1335776072581941,0.4552457825466398,790.952380952381,793.3699633699634,798.6080586080586,797.3992673992674,767.985347985348,537.5091575091575,-0.14209,-0.050415,0.974182,4.590759,0.448608,0.530853,1.0,1.0,1.0,1.0,1.0,75.0,,1637402255.258
0.4849267564422889,-0.3561797536798516,0.1844064652335035,0.6188910762365121,0.2062260423988001,-0.302301682195308,-0.0261376146035751,0.1884907205375688,0.5058659457305493,0.189219294689695,0.2168561287800576,0.654964179965198,0.3823848035636572,0.0338853919499587,0.298861738885939,0.4560193897629087,0.1708061632275198,-0.2277569141712031,-0.1335776072581941,0.4552457825466398,794.5787545787546,802.6373626373627,794.981684981685,802.2344322344322,746.6300366300367,617.6923076923077,-0.14209,-0.050415,0.974182,4.590759,0.448608,0.530853,1.0,1.0,1.0,1.0,1.0,75.0,,1637402255.259
0.4849267564422889,-0.3561797536798516,0.1844064652335035,0.6188910762365121,0.2062260423988001,-0.302301682195308,-0.0261376146035751,0.1884907205375688,0.5058659457305493,0.189219294689695,0.2168561287800576,0.654964179965198,0.3823848035636572,0.0338853919499587,0.298861738885939,0.4560193897629087,0.1708061632275198,-0.2277569141712031,-0.1335776072581941,0.4552457825466398,795.7875457875458,801.025641025641,789.7435897435897,803.040293040293,786.5201465201466,682.5641025641025,-0.14209,-0.050415,0.974182,4.590759,0.448608,0.530853,1.0,1.0,1.0,1.0,1.0,75.0,,1637402255.259
0.4849267564422889,-0.3561797536798516,0.1844064652335035,0.6188910762365121,0.2062260423988001,-0.302301682195308,-0.0261376146035751,0.1884907205375688,0.5058659457305493,0.189219294689695,0.2168561287800576,0.654964179965198,0.3823848035636572,0.0338853919499587,0.298861738885939,0.4560193897629087,0.1708061632275198,-0.2277569141712031,-0.1335776072581941,0.4552457825466398,802.6373626373627,796.996336996337,796.5934065934066,797.8021978021978,794.981684981685,650.7326007326008,-0.143188,-0.049133,0.977112,3.872986,0.897217,1.742096,1.0,1.0,1.0,1.0,1.0,75.0,,1637402255.303
0.4849267564422889,-0.3561797536798516,0.1844064652335035,0.6188910762365121,0.2062260423988001,-0.302301682195308,-0.0261376146035751,0.1884907205375688,0.5058659457305493,0.189219294689695,0.2168561287800576,0.654964179965198,0.3823848035636572,0.0338853919499587,0.298861738885939,0.4560193897629087,0.1708061632275198,-0.2277569141712031,-0.1335776072581941,0.4552457825466398,809.4871794871796,801.025641025641,803.8461538461539,796.996336996337,788.5347985347986,621.3186813186813,-0.143188,-0.049133,0.977112,3.872986,0.897217,1.742096,1.0,1.0,1.0,1.0,1.0,75.0,,1637402255.304
0.4849267564422889,-0.3561797536798516,0.1844064652335035,0.6188910762365121,0.2062260423988001,-0.302301682195308,-0.0261376146035751,0.1884907205375688,0.5058659457305493,0.189219294689695,0.2168561287800576,0.654964179965198,0.3823848035636572,0.0338853919499587,0.298861738885939,0.4560193897629087,0.1708061632275198,-0.2277569141712031,-0.1335776072581941,0.4552457825466398,800.2197802197802,803.8461538461539,802.6373626373627,787.7289377289378,773.6263736263736,822.7838827838829,-0.143188,-0.049133,0.977112,3.872986,0.897217,1.742096,1.0,1.0,1.0,1.0,1.0,75.0,,1637402255.304
0.4849267564422889,-0.3561797536798516,0.1844064652335035,0.6188910762365121,0.2062260423988001,-0.302301682195308,-0.0261376146035751,0.1884907205375688,0.5058659457305493,0.189219294689695,0.2168561287800576,0.654964179965198,0.3823848035636572,0.0338853919499587,0.298861738885939,0.4560193897629087,0.1708061632275198,-0.2277569141712031,-0.1335776072581941,0.4552457825466398,795.3846153846154,799.4139194139194,796.996336996337,770.8058608058608,726.886446886447,819.96336996337,-0.143188,-0.049133,0.977112,3.872986,0.897217,1.742096,1.0,1.0,1.0,1.0,1.0,75.0,,1637402255.304
0.4849267564422889,-0.3561797536798516,0.1844064652335035,0.6188910762365121,0.2062260423988001,-0.302301682195308,-0.0261376146035751,0.1884907205375688,0.5058659457305493,0.189219294689695,0.2168561287800576,0.654964179965198,0.3823848035636572,0.0338853919499587,0.298861738885939,0.4560193897629087,0.1708061632275198,-0.2277569141712031,-0.1335776072581941,0.4552457825466398,799.0109890109891,804.2490842490843,798.2051282051282,776.0439560439561,747.8388278388279,604.3956043956044,-0.143188,-0.049133,0.977112,3.872986,0.897217,1.742096,1.0,1.0,1.0,1.0,1.0,75.0,,1637402255.304
0.4849267564422889,-0.3561797536798516,0.1844064652335035,0.6188910762365121,0.2062260423988001,-0.302301682195308,-0.0261376146035751,0.1884907205375688,0.5058659457305493,0.189219294689695,0.2168561287800576,0.654964179965198,0.3823848035636572,0.0338853919499587,0.298861738885939,0.4560193897629087,0.1708061632275198,-0.2277569141712031,-0.1335776072581941,0.4552457825466398,795.7875457875458,809.8901098901099,797.8021978021978,783.6996336996338,792.1611721611722,798.6080586080586,-0.143188,-0.049133,0.977112,3.872986,0.897217,1.742096,1.0,1.0,1.0,1.0,1.0,75.0,,1637402255.305
0.4849267564422889,-0.3561797536798516,0.1844064652335035,0.6188910762365121,0.2062260423988001,-0.302301682195308,-0.0261376146035751,0.1884907205375688,0.5058659457305493,0.189219294689695,0.2168561287800576,0.654964179965198,0.3823848035636572,0.0338853919499587,0.298861738885939,0.4560193897629087,0.1708061632275198,-0.2277569141712031,-0.1335776072581941,0.4552457825466398,797.8021978021978,807.4725274725275,796.996336996337,787.7289377289378,759.5238095238095,1096.373626373626,-0.143188,-0.049133,0.977112,3.872986,0.897217,1.742096,1.0,1.0,1.0,1.0,1.0,75.0,,1637402255.305
0.4849267564422889,-0.3561797536798516,0.1844064652335035,0.6188910762365121,0.2062260423988001,-0.302301682195308,-0.0261376146035751,0.1884907205375688,0.5058659457305493,0.189219294689695,0.2168561287800576,0.654964179965198,0.3823848035636572,0.0338853919499587,0.298861738885939,0.4560193897629087,0.1708061632275198,-0.2277569141712031,-0.1335776072581941,0.4552457825466398,800.2197802197802,804.6520146520147,796.996336996337,789.3406593406594,782.893772893773,967.4358974358976,-0.143188,-0.049133,0.977112,3.872986,0.897217,1.742096,1.0,1.0,1.0,1.0,1.0,75.0,,1637402255.305
0.4849267564422889,-0.3561797536798516,0.1844064652335035,0.6188910762365121,0.2062260423988001,-0.302301682195308,-0.0261376146035751,0.1884907205375688,0.5058659457305493,0.189219294689695,0.2168561287800576,0.654964179965198,0.3823848035636572,0.0338853919499587,0.298861738885939,0.4560193897629087,0.1708061632275198,-0.2277569141712031,-0.1335776072581941,0.4552457825466398,799.8168498168499,802.2344322344322,793.3699633699634,784.5054945054945,831.2454212454213,669.2673992673992,-0.143188,-0.049133,0.977112,3.872986,0.897217,1.742096,1.0,1.0,1.0,1.0,1.0,75.0,,1637402255.306
0.4849267564422889,-0.3561797536798516,0.1844064652335035,0.6188910762365121,0.2062260423988001,-0.302301682195308,-0.0261376146035751,0.1884907205375688,0.5058659457305493,0.189219294689695,0.2168561287800576,0.654964179965198,0.3823848035636572,0.0338853919499587,0.298861738885939,0.4560193897629087,0.1708061632275198,-0.2277569141712031,-0.1335776072581941,0.4552457825466398,796.1904761904763,802.2344322344322,791.7582417582418,784.1025641025641,864.6886446886447,622.1245421245421,-0.143188,-0.049133,0.977112,3.872986,0.897217,1.742096,1.0,1.0,1.0,1.0,1.0,75.0,,1637402255.306
0.4849267564422889,-0.3561797536798516,0.1844064652335035,0.6188910762365121,0.2062260423988001,-0.302301682195308,-0.0261376146035751,0.1884907205375688,0.5058659457305493,0.189219294689695,0.2168561287800576,0.654964179965198,0.3823848035636572,0.0338853919499587,0.298861738885939,0.4560193897629087,0.1708061632275198,-0.2277569141712031,-0.1335776072581941,0.4552457825466398,796.996336996337,803.8461538461539,794.981684981685,789.7435897435897,910.6227106227108,807.4725274725275,-0.143188,-0.049133,0.977112,3.872986,0.897217,1.742096,1.0,1.0,1.0,1.0,1.0,75.0,,1637402255.306
0.4849267564422889,-0.3561797536798516,0.1844064652335035,0.6188910762365121,0.2062260423988001,-0.302301682195308,-0.0261376146035751,0.1884907205375688,0.5058659457305493,0.189219294689695,0.2168561287800576,0.654964179965198,0.3823848035636572,0.0338853919499587,0.298861738885939,0.4560193897629087,0.1708061632275198,-0.2277569141712031,-0.1335776072581941,0.4552457825466398,803.8461538461539,799.0109890109891,793.7728937728938,790.952380952381,863.8827838827839,804.6520146520147,-0.143188,-0.049133,0.977112,3.872986,0.897217,1.742096,1.0,1.0,1.0,1.0,1.0,75.0,,1637402255.307
0.4849267564422889,-0.3561797536798516,0.1844064652335035,0.6188910762365121,0.2062260423988001,-0.302301682195308,-0.0261376146035751,0.1884907205375688,0.5058659457305493,0.189219294689695,0.2168561287800576,0.654964179965198,0.3823848035636572,0.0338853919499587,0.298861738885939,0.4560193897629087,0.1708061632275198,-0.2277569141712031,-0.1335776072581941,0.4552457825466398,796.1904761904763,799.4139194139194,790.952380952381,785.3113553113553,772.4175824175825,691.4285714285714,-0.143188,-0.049133,0.977112,3.872986,0.897217,1.742096,1.0,1.0,1.0,1.0,1.0,75.0,,1637402255.35
0.4849267564422889,-0.3561797536798516,0.1844064652335035,0.6188910762365121,0.2062260423988001,-0.302301682195308,-0.0261376146035751,0.1884907205375688,0.5058659457305493,0.189219294689695,0.2168561287800576,0.654964179965198,0.3823848035636572,0.0338853919499587,0.298861738885939,0.4560193897629087,0.1708061632275198,-0.2277569141712031,-0.1335776072581941,0.4552457825466398,794.981684981685,804.2490842490843,794.1758241758242,785.3113553113553,778.0586080586081,894.908424908425,-0.143188,-0.049133,0.977112,3.872986,0.897217,1.742096,1.0,1.0,1.0,1.0,1.0,75.0,,1637402255.35
0.4849267564422889,-0.3561797536798516,0.1844064652335035,0.6188910762365121,0.2062260423988001,-0.302301682195308,-0.0261376146035751,0.1884907205375688,0.5058659457305493,0.189219294689695,0.2168561287800576,0.654964179965198,0.3823848035636572,0.0338853919499587,0.298861738885939,0.4560193897629087,0.1708061632275198,-0.2277569141712031,-0.1335776072581941,0.4552457825466398,796.996336996337,803.8461538461539,794.1758241758242,789.7435897435897,808.2783882783883,980.3296703296704,-0.143188,-0.049133,0.977112,3.872986,0.897217,1.742096,1.0,1.0,1.0,1.0,1.0,75.0,,1637402255.35
0.4849267564422889,-0.3561797536798516,0.1844064652335035,0.6188910762365121,0.2062260423988001,-0.302301682195308,-0.0261376146035751,0.1884907205375688,0.5058659457305493,0.189219294689695,0.2168561287800576,0.654964179965198,0.3823848035636572,0.0338853919499587,0.298861738885939,0.4560193897629087,0.1708061632275198,-0.2277569141712031,-0.1335776072581941,0.4552457825466398,789.7435897435897,799.8168498168499,796.1904761904763,793.7728937728938,766.7765567765568,712.3809523809524,-0.143188,-0.049133,0.977112,3.872986,0.897217,1.742096,1.0,1.0,1.0,1.0,1.0,75.0,,1637402255.351
0.4849267564422889,-0.3561797536798516,0.1844064652335035,0.6188910762365121,0.2062260423988001,-0.302301682195308,-0.0261376146035751,0.1884907205375688,0.5058659457305493,0.189219294689695,0.2168561287800576,0.654964179965198,0.3823848035636572,0.0338853919499587,0.298861738885939,0.4560193897629087,0.1708061632275198,-0.2277569141712031,-0.1335776072581941,0.4552457825466398,794.981684981685,798.2051282051282,800.2197802197802,793.7728937728938,794.981684981685,753.4798534798535,-0.143188,-0.049133,0.977112,3.872986,0.897217,1.742096,1.0,1.0,1.0,1.0,1.0,75.0,,1637402255.351
0.4849267564422889,-0.3561797536798516,0.1844064652335035,0.6188910762365121,0.2062260423988001,-0.302301682195308,-0.0261376146035751,0.1884907205375688,0.5058659457305493,0.189219294689695,0.2168561287800576,0.654964179965198,0.3823848035636572,0.0338853919499587,0.298861738885939,0.4560193897629087,0.1708061632275198,-0.2277569141712031,-0.1335776072581941,0.4552457825466398,796.5934065934066,802.6373626373627,799.4139194139194,797.3992673992674,796.1904761904763,911.0256410256412,-0.143188,-0.049133,0.977112,3.872986,0.897217,1.742096,1.0,1.0,1.0,1.0,1.0,75.0,,1637402255.351
0.4849267564422889,-0.3561797536798516,0.1844064652335035,0.6188910762365121,0.2062260423988001,-0.302301682195308,-0.0261376146035751,0.1884907205375688,0.5058659457305493,0.189219294689695,0.2168561287800576,0.654964179965198,0.3823848035636572,0.0338853919499587,0.298861738885939,0.4560193897629087,0.1708061632275198,-0.2277569141712031,-0.1335776072581941,0.4552457825466398,792.1611721611722,800.2197802197802,794.981684981685,801.4285714285714,721.6483516483516,1094.358974358974,-0.143188,-0.049133,0.977112,3.872986,0.897217,1.742096,1.0,1.0,1.0,1.0,1.0,75.0,,1637402255.352
0.4620414918106867,-0.3917290933300055,0.1708677855075566,0.587293112247328,0.216414290907302,-0.3078547730943988,-0.0452250284765617,0.2066047747138698,0.4933538193839359,0.1535711055356459,0.1885129780838362,0.6356377982759973,0.4089860093424765,0.0256986997849896,0.3016468434279955,0.4398921793386972,0.1639723113887011,-0.2197977994303434,-0.1292927646364801,0.4289594233102456,794.981684981685,794.981684981685,790.5494505494506,805.054945054945,780.4761904761905,1031.904761904762,-0.143188,-0.049133,0.977112,3.872986,0.897217,1.742096,1.0,1.0,1.0,1.0,1.0,75.0,,1637402255.352
0.4620414918106867,-0.3917290933300055,0.1708677855075566,0.587293112247328,0.216414290907302,-0.3078547730943988,-0.0452250284765617,0.2066047747138698,0.4933538193839359,0.1535711055356459,0.1885129780838362,0.6356377982759973,0.4089860093424765,0.0256986997849896,0.3016468434279955,0.4398921793386972,0.1639723113887011,-0.2197977994303434,-0.1292927646364801,0.4289594233102456,796.1904761904763,794.1758241758242,790.952380952381,807.0695970695971,850.5860805860806,784.5054945054945,-0.143188,-0.049133,0.977112,3.872986,0.897217,1.742096,1.0,1.0,1.0,1.0,1.0,75.0,,1637402255.353
0.4620414918106867,-0.3917290933300055,0.1708677855075566,0.587293112247328,0.216414290907302,-0.3078547730943988,-0.0452250284765617,0.2066047747138698,0.4933538193839359,0.1535711055356459,0.1885129780838362,0.6356377982759973,0.4089860093424765,0.0256986997849896,0.3016468434279955,0.4398921793386972,0.1639723113887011,-0.2197977994303434,-0.1292927646364801,0.4289594233102456,796.1904761904763,791.3553113553114,792.967032967033,801.4285714285714,761.941391941392,658.7912087912088,-0.143188,-0.049133,0.977112,3.872986,0.897217,1.742096,1.0,1.0,1.0,1.0,1.0,75.0,,1637402255.353
0.4620414918106867,-0.3917290933300055,0.1708677855075566,0.587293112247328,0.216414290907302,-0.3078547730943988,-0.0452250284765617,0.2066047747138698,0.4933538193839359,0.1535711055356459,0.1885129780838362,0.6356377982759973,0.4089860093424765,0.0256986997849896,0.3016468434279955,0.4398921793386972,0.1639723113887011,-0.2197977994303434,-0.1292927646364801,0.4289594233102456,797.8021978021978,794.1758241758242,795.3846153846154,793.7728937728938,759.92673992674,657.5824175824176,-0.143188,-0.049133,0.977112,3.872986,0.897217,1.742096,1.0,1.0,1.0,1.0,1.0,75.0,,1637402255.353
0.4620414918106867,-0.3917290933300055,0.1708677855075566,0.587293112247328,0.216414290907302,-0.3078547730943988,-0.0452250284765617,0.2066047747138698,0.4933538193839359,0.1535711055356459,0.1885129780838362,0.6356377982759973,0.4089860093424765,0.0256986997849896,0.3016468434279955,0.4398921793386972,0.1639723113887011,-0.2197977994303434,-0.1292927646364801,0.4289594233102456,796.1904761904763,798.6080586080586,791.7582417582418,795.3846153846154,858.2417582417582,772.014652014652,-0.143188,-0.049133,0.977112,3.872986,0.897217,1.742096,1.0,1.0,1.0,1.0,1.0,75.0,,1637402255.354
0.4620414918106867,-0.3917290933300055,0.1708677855075566,0.587293112247328,0.216414290907302,-0.3078547730943988,-0.0452250284765617,0.2066047747138698,0.4933538193839359,0.1535711055356459,0.1885129780838362,0.6356377982759973,0.4089860093424765,0.0256986997849896,0.3016468434279955,0.4398921793386972,0.1639723113887011,-0.2197977994303434,-0.1292927646364801,0.4289594233102456,792.5641025641025,794.981684981685,787.3260073260074,797.3992673992674,840.1098901098901,679.3406593406594,-0.146973,-0.04657,0.974854,3.140259,0.91217,2.287903,1.0,1.0,1.0,1.0,1.0,75.0,,1637402255.376
0.4620414918106867,-0.3917290933300055,0.1708677855075566,0.587293112247328,0.216414290907302,-0.3078547730943988,-0.0452250284765617,0.2066047747138698,0.4933538193839359,0.1535711055356459,0.1885129780838362,0.6356377982759973,0.4089860093424765,0.0256986997849896,0.3016468434279955,0.4398921793386972,0.1639723113887011,-0.2197977994303434,-0.1292927646364801,0.4289594233102456,793.7728937728938,790.952380952381,787.3260073260074,792.967032967033,854.6153846153846,652.7472527472528,-0.146973,-0.04657,0.974854,3.140259,0.91217,2.287903,1.0,1.0,1.0,1.0,1.0,75.0,,1637402255.377
0.4620414918106867,-0.3917290933300055,0.1708677855075566,0.587293112247328,0.216414290907302,-0.3078547730943988,-0.0452250284765617,0.2066047747138698,0.4933538193839359,0.1535711055356459,0.1885129780838362,0.6356377982759973,0.4089860093424765,0.0256986997849896,0.3016468434279955,0.4398921793386972,0.1639723113887011,-0.2197977994303434,-0.1292927646364801,0.4289594233102456,796.1904761904763,796.996336996337,782.893772893773,781.2820512820513,786.1172161172161,691.025641025641,-0.146973,-0.04657,0.974854,3.140259,0.91217,2.287903,1.0,1.0,1.0,1.0,1.0,75.0,,1637402255.377
0.4620414918106867,-0.3917290933300055,0.1708677855075566,0.587293112247328,0.216414290907302,-0.3078547730943988,-0.0452250284765617,0.2066047747138698,0.4933538193839359,0.1535711055356459,0.1885129780838362,0.6356377982759973,0.4089860093424765,0.0256986997849896,0.3016468434279955,0.4398921793386972,0.1639723113887011,-0.2197977994303434,-0.1292927646364801,0.4289594233102456,792.1611721611722,802.2344322344322,782.0879120879121,779.6703296703297,722.8571428571429,693.040293040293,-0.146973,-0.04657,0.974854,3.140259,0.91217,2.287903,1.0,1.0,1.0,1.0,1.0,75.0,,1637402255.377
0.4620414918106867,-0.3917290933300055,0.1708677855075566,0.587293112247328,0.216414290907302,-0.3078547730943988,-0.0452250284765617,0.2066047747138698,0.4933538193839359,0.1535711055356459,0.1885129780838362,0.6356377982759973,0.4089860093424765,0.0256986997849896,0.3016468434279955,0.4398921793386972,0.1639723113887011,-0.2197977994303434,-0.1292927646364801,0.4289594233102456,797.3992673992674,798.6080586080586,784.9084249084249,793.3699633699634,746.6300366300367,579.0109890109891,-0.146973,-0.04657,0.974854,3.140259,0.91217,2.287903,1.0,1.0,1.0,1.0,1.0,75.0,,1637402255.378
0.4620414918106867,-0.3917290933300055,0.1708677855075566,0.587293112247328,0.216414290907302,-0.3078547730943988,-0.0452250284765617,0.2066047747138698,0.4933538193839359,0.1535711055356459,0.1885129780838362,0.6356377982759973,0.4089860093424765,0.0256986997849896,0.3016468434279955,0.4398921793386972,0.1639723113887011,-0.2197977994303434,-0.1292927646364801,0.4289594233102456,798.2051282051282,796.5934065934066,787.7289377289378,790.5494505494506,705.1282051282052,647.9120879120879,-0.146973,-0.04657,0.974854,3.140259,0.91217,2.287903,1.0,1.0,1.0,1.0,1.0,75.0,,1637402255.378
0.4620414918106867,-0.3917290933300055,0.1708677855075566,0.587293112247328,0.216414290907302,-0.3078547730943988,-0.0452250284765617,0.2066047747138698,0.4933538193839359,0.1535711055356459,0.1885129780838362,0.6356377982759973,0.4089860093424765,0.0256986997849896,0.3016468434279955,0.4398921793386972,0.1639723113887011,-0.2197977994303434,-0.1292927646364801,0.4289594233102456,796.5934065934066,805.054945054945,794.981684981685,787.7289377289378,716.007326007326,1108.461538461539,-0.146973,-0.04657,0.974854,3.140259,0.91217,2.287903,1.0,1.0,1.0,1.0,1.0,75.0,,1637402255.378
0.4620414918106867,-0.3917290933300055,0.1708677855075566,0.587293112247328,0.216414290907302,-0.3078547730943988,-0.0452250284765617,0.2066047747138698,0.4933538193839359,0.1535711055356459,0.1885129780838362,0.6356377982759973,0.4089860093424765,0.0256986997849896,0.3016468434279955,0.4398921793386972,0.1639723113887011,-0.2197977994303434,-0.1292927646364801,0.4289594233102456,797.8021978021978,805.054945054945,801.025641025641,785.7142857142858,832.8571428571429,1245.860805860806,-0.146973,-0.04657,0.974854,3.140259,0.91217,2.287903,1.0,1.0,1.0,1.0,1.0,75.0,,1637402255.378
0.4620414918106867,-0.3917290933300055,0.1708677855075566,0.587293112247328,0.216414290907302,-0.3078547730943988,-0.0452250284765617,0.2066047747138698,0.4933538193839359,0.1535711055356459,0.1885129780838362,0.6356377982759973,0.4089860093424765,0.0256986997849896,0.3016468434279955,0.4398921793386972,0.1639723113887011,-0.2197977994303434,-0.1292927646364801,0.4289594233102456,800.2197802197802,794.1758241758242,799.0109890109891,788.5347985347986,873.956043956044,957.3626373626374,-0.146973,-0.04657,0.974854,3.140259,0.91217,2.287903,1.0,1.0,1.0,1.0,1.0,75.0,,1637402255.379
0.4620414918106867,-0.3917290933300055,0.1708677855075566,0.587293112247328,0.216414290907302,-0.3078547730943988,-0.0452250284765617,0.2066047747138698,0.4933538193839359,0.1535711055356459,0.1885129780838362,0.6356377982759973,0.4089860093424765,0.0256986997849896,0.3016468434279955,0.4398921793386972,0.1639723113887011,-0.2197977994303434,-0.1292927646364801,0.4289594233102456,803.040293040293,797.8021978021978,792.967032967033,797.8021978021978,837.2893772893773,750.2564102564103,-0.146973,-0.04657,0.974854,3.140259,0.91217,2.287903,1.0,1.0,1.0,1.0,1.0,75.0,,1637402255.379
0.4620414918106867,-0.3917290933300055,0.1708677855075566,0.587293112247328,0.216414290907302,-0.3078547730943988,-0.0452250284765617,0.2066047747138698,0.4933538193839359,0.1535711055356459,0.1885129780838362,0.6356377982759973,0.4089860093424765,0.0256986997849896,0.3016468434279955,0.4398921793386972,0.1639723113887011,-0.2197977994303434,-0.1292927646364801,0.4289594233102456,801.4285714285714,802.6373626373627,796.5934065934066,797.3992673992674,856.2271062271062,820.7692307692308,-0.146973,-0.04657,0.974854,3.140259,0.91217,2.287903,1.0,1.0,1.0,1.0,1.0,75.0,,1637402255.379
0.4620414918106867,-0.3917290933300055,0.1708677855075566,0.587293112247328,0.216414290907302,-0.3078547730943988,-0.0452250284765617,0.2066047747138698,0.4933538193839359,0.1535711055356459,0.1885129780838362,0.6356377982759973,0.4089860093424765,0.0256986997849896,0.3016468434279955,0.4398921793386972,0.1639723113887011,-0.2197977994303434,-0.1292927646364801,0.4289594233102456,799.4139194139194,801.025641025641,800.6227106227107,799.8168498168499,859.047619047619,844.5421245421246,-0.146973,-0.04657,0.974854,3.140259,0.91217,2.287903,1.0,1.0,1.0,1.0,1.0,75.0,,1637402255.38
0.4620414918106867,-0.3917290933300055,0.1708677855075566,0.587293112247328,0.216414290907302,-0.3078547730943988,-0.0452250284765617,0.2066047747138698,0.4933538193839359,0.1535711055356459,0.1885129780838362,0.6356377982759973,0.4089860093424765,0.0256986997849896,0.3016468434279955,0.4398921793386972,0.1639723113887011,-0.2197977994303434,-0.1292927646364801,0.4289594233102456,803.4432234432235,802.6373626373627,799.0109890109891,806.6666666666667,848.1684981684982,699.0842490842491,-0.147217,-0.043701,0.969604,2.818756,0.343933,2.018738,1.0,1.0,1.0,1.0,1.0,75.0,,1637402255.444
0.4620414918106867,-0.3917290933300055,0.1708677855075566,0.587293112247328,0.216414290907302,-0.3078547730943988,-0.0452250284765617,0.2066047747138698,0.4933538193839359,0.1535711055356459,0.1885129780838362,0.6356377982759973,0.4089860093424765,0.0256986997849896,0.3016468434279955,0.4398921793386972,0.1639723113887011,-0.2197977994303434,-0.1292927646364801,0.4289594233102456,802.2344322344322,799.0109890109891,796.996336996337,794.1758241758242,871.1355311355312,895.7142857142858,-0.147217,-0.043701,0.969604,2.818756,0.343933,2.018738,1.0,1.0,1.0,1.0,1.0,75.0,,1637402255.445
0.4620414918106867,-0.3917290933300055,0.1708677855075566,0.587293112247328,0.216414290907302,-0.3078547730943988,-0.0452250284765617,0.2066047747138698,0.4933538193839359,0.1535711055356459,0.1885129780838362,0.6356377982759973,0.4089860093424765,0.0256986997849896,0.3016468434279955,0.4398921793386972,0.1639723113887011,-0.2197977994303434,-0.1292927646364801,0.4289594233102456,791.3553113553114,790.952380952381,792.1611721611722,783.2967032967033,837.6923076923077,1081.465201465202,-0.147217,-0.043701,0.969604,2.818756,0.343933,2.018738,1.0,1.0,1.0,1.0,1.0,75.0,,1637402255.445
0.4620414918106867,-0.3917290933300055,0.1708677855075566,0.587293112247328,0.216414290907302,-0.3078547730943988,-0.0452250284765617,0.2066047747138698,0.4933538193839359,0.1535711055356459,0.1885129780838362,0.6356377982759973,0.4089860093424765,0.0256986997849896,0.3016468434279955,0.4398921793386972,0.1639723113887011,-0.2197977994303434,-0.1292927646364801,0.4289594233102456,790.5494505494506,788.9377289377289,784.5054945054945,788.5347985347986,801.8315018315019,840.5128205128206,-0.147217,-0.043701,0.969604,2.818756,0.343933,2.018738,1.0,1.0,1.0,1.0,1.0,75.0,,1637402255.445
0.4620414918106867,-0.3917290933300055,0.1708677855075566,0.587293112247328,0.216414290907302,-0.3078547730943988,-0.0452250284765617,0.2066047747138698,0.4933538193839359,0.1535711055356459,0.1885129780838362,0.6356377982759973,0.4089860093424765,0.0256986997849896,0.3016468434279955,0.4398921793386972,0.1639723113887011,-0.2197977994303434,-0.1292927646364801,0.4289594233102456,786.5201465201466,792.5641025641025,782.893772893773,785.7142857142858,773.2234432234433,615.2747252747253,-0.147217,-0.043701,0.969604,2.818756,0.343933,2.018738,1.0,1.0,1.0,1.0,1.0,75.0,,1637402255.446
0.4620414918106867,-0.3917290933300055,0.1708677855075566,0.587293112247328,0.216414290907302,-0.3078547730943988,-0.0452250284765617,0.2066047747138698,0.4933538193839359,0.1535711055356459,0.1885129780838362,0.6356377982759973,0.4089860093424765,0.0256986997849896,0.3016468434279955,0.4398921793386972,0.1639723113887011,-0.2197977994303434,-0.1292927646364801,0.4289594233102456,774.8351648351648,794.1758241758242,784.9084249084249,781.2820512820513,755.8974358974359,699.4871794871796,-0.147217,-0.043701,0.969604,2.818756,0.343933,2.018738,1.0,1.0,1.0,1.0,1.0,75.0,,1637402255.446
0.4620414918106867,-0.3917290933300055,0.1708677855075566,0.587293112247328,0.216414290907302,-0.3078547730943988,-0.0452250284765617,0.2066047747138698,0.4933538193839359,0.1535711055356459,0.1885129780838362,0.6356377982759973,0.4089860093424765,0.0256986997849896,0.3016468434279955,0.4398921793386972,0.1639723113887011,-0.2197977994303434,-0.1292927646364801,0.4289594233102456,773.6263736263736,787.3260073260074,791.7582417582418,776.8498168498169,814.7252747252747,1239.41391941392,-0.147217,-0.043701,0.969604,2.818756,0.343933,2.018738,1.0,1.0,1.0,1.0,1.0,75.0,,1637402255.447
0.4620414918106867,-0.3917290933300055,0.1708677855075566,0.587293112247328,0.216414290907302,-0.3078547730943988,-0.0452250284765617,0.2066047747138698,0.4933538193839359,0.1535711055356459,0.1885129780838362,0.6356377982759973,0.4089860093424765,0.0256986997849896,0.3016468434279955,0.4398921793386972,0.1639723113887011,-0.2197977994303434,-0.1292927646364801,0.4289594233102456,779.6703296703297,785.3113553113553,796.996336996337,777.2527472527473,776.8498168498169,1058.498168498169,-0.147217,-0.043701,0.969604,2.818756,0.343933,2.018738,1.0,1.0,1.0,1.0,1.0,75.0,,1637402255.447
0.4620414918106867,-0.3917290933300055,0.1708677855075566,0.587293112247328,0.216414290907302,-0.3078547730943988,-0.0452250284765617,0.2066047747138698,0.4933538193839359,0.1535711055356459,0.1885129780838362,0.6356377982759973,0.4089860093424765,0.0256986997849896,0.3016468434279955,0.4398921793386972,0.1639723113887011,-0.2197977994303434,-0.1292927646364801,0.4289594233102456,779.6703296703297,786.5201465201466,792.1611721611722,782.4908424908425,734.1391941391942,566.1172161172161,-0.147217,-0.043701,0.969604,2.818756,0.343933,2.018738,1.0,1.0,1.0,1.0,1.0,75.0,,1637402255.447
0.4403551422903387,-0.3999725858566732,0.1541837297660201,0.5506385313013392,0.218690232413608,-0.3033172644854072,-0.0730099836818283,0.2168706679335436,0.4889844696692726,0.147830937408007,0.1705055598696998,0.6255707556278042,0.4417622190239765,0.0144410725312823,0.2991623023236418,0.4315361842597522,0.1488465164831703,-0.2190977576553397,-0.1263508408904375,0.4094739618097704,786.9230769230769,786.1172161172161,786.1172161172161,785.7142857142858,736.1538461538462,669.2673992673992,-0.147217,-0.043701,0.969604,2.818756,0.343933,2.018738,1.0,1.0,1.0,1.0,1.0,75.0,,1637402255.448
0.4403551422903387,-0.3999725858566732,0.1541837297660201,0.5506385313013392,0.218690232413608,-0.3033172644854072,-0.0730099836818283,0.2168706679335436,0.4889844696692726,0.147830937408007,0.1705055598696998,0.6255707556278042,0.4417622190239765,0.0144410725312823,0.2991623023236418,0.4315361842597522,0.1488465164831703,-0.2190977576553397,-0.1263508408904375,0.4094739618097704,790.952380952381,789.3406593406594,790.1465201465202,795.3846153846154,802.6373626373627,868.3150183150184,-0.147217,-0.043701,0.969604,2.818756,0.343933,2.018738,1.0,1.0,1.0,1.0,1.0,75.0,,1637402255.449
0.4403551422903387,-0.3999725858566732,0.1541837297660201,0.5506385313013392,0.218690232413608,-0.3033172644854072,-0.0730099836818283,0.2168706679335436,0.4889844696692726,0.147830937408007,0.1705055598696998,0.6255707556278042,0.4417622190239765,0.0144410725312823,0.2991623023236418,0.4315361842597522,0.1488465164831703,-0.2190977576553397,-0.1263508408904375,0.4094739618097704,782.893772893773,788.5347985347986,798.2051282051282,796.1904761904763,819.1575091575091,764.3589743589744,-0.147217,-0.043701,0.969604,2.818756,0.343933,2.018738,1.0,1.0,1.0,1.0,1.0,75.0,,1637402255.449
0.4403551422903387,-0.3999725858566732,0.1541837297660201,0.5506385313013392,0.218690232413608,-0.3033172644854072,-0.0730099836818283,0.2168706679335436,0.4889844696692726,0.147830937408007,0.1705055598696998,0.6255707556278042,0.4417622190239765,0.0144410725312823,0.2991623023236418,0.4315361842597522,0.1488465164831703,-0.2190977576553397,-0.1263508408904375,0.4094739618097704,791.3553113553114,789.3406593406594,797.8021978021978,795.7875457875458,806.6666666666667,658.7912087912088,-0.147278,-0.048645,0.98584,3.22998,0.433655,1.502838,1.0,1.0,1.0,1.0,1.0,75.0,,1637402255.515
0.4403551422903387,-0.3999725858566732,0.1541837297660201,0.5506385313013392,0.218690232413608,-0.3033172644854072,-0.0730099836818283,0.2168706679335436,0.4889844696692726,0.147830937408007,0.1705055598696998,0.6255707556278042,0.4417622190239765,0.0144410725312823,0.2991623023236418,0.4315361842597522,0.1488465164831703,-0.2190977576553397,-0.1263508408904375,0.4094739618097704,795.7875457875458,789.3406593406594,796.996336996337,801.4285714285714,779.2673992673992,567.7289377289377,-0.147278,-0.048645,0.98584,3.22998,0.433655,1.502838,1.0,1.0,1.0,1.0,1.0,75.0,,1637402255.515
0.4403551422903387,-0.3999725858566732,0.1541837297660201,0.5506385313013392,0.218690232413608,-0.3033172644854072,-0.0730099836818283,0.2168706679335436,0.4889844696692726,0.147830937408007,0.1705055598696998,0.6255707556278042,0.4417622190239765,0.0144410725312823,0.2991623023236418,0.4315361842597522,0.1488465164831703,-0.2190977576553397,-0.1263508408904375,0.4094739618097704,783.2967032967033,787.7289377289378,797.8021978021978,797.3992673992674,820.7692307692308,732.1245421245421,-0.147278,-0.048645,0.98584,3.22998,0.433655,1.502838,1.0,1.0,1.0,1.0,1.0,75.0,,1637402255.516
0.4403551422903387,-0.3999725858566732,0.1541837297660201,0.5506385313013392,0.218690232413608,-0.3033172644854072,-0.0730099836818283,0.2168706679335436,0.4889844696692726,0.147830937408007,0.1705055598696998,0.6255707556278042,0.4417622190239765,0.0144410725312823,0.2991623023236418,0.4315361842597522,0.1488465164831703,-0.2190977576553397,-0.1263508408904375,0.4094739618097704,781.2820512820513,784.1025641025641,789.3406593406594,792.5641025641025,853.8095238095239,810.2930402930403,-0.147278,-0.048645,0.98584,3.22998,0.433655,1.502838,1.0,1.0,1.0,1.0,1.0,75.0,,1637402255.517
0.4403551422903387,-0.3999725858566732,0.1541837297660201,0.5506385313013392,0.218690232413608,-0.3033172644854072,-0.0730099836818283,0.2168706679335436,0.4889844696692726,0.147830937408007,0.1705055598696998,0.6255707556278042,0.4417622190239765,0.0144410725312823,0.2991623023236418,0.4315361842597522,0.1488465164831703,-0.2190977576553397,-0.1263508408904375,0.4094739618097704,791.7582417582418,787.7289377289378,786.5201465201466,797.3992673992674,819.96336996337,665.6410256410256,-0.147278,-0.048645,0.98584,3.22998,0.433655,1.502838,1.0,1.0,1.0,1.0,1.0,75.0,,1637402255.517
0.4403551422903387,-0.3999725858566732,0.1541837297660201,0.5506385313013392,0.218690232413608,-0.3033172644854072,-0.0730099836818283,0.2168706679335436,0.4889844696692726,0.147830937408007,0.1705055598696998,0.6255707556278042,0.4417622190239765,0.0144410725312823,0.2991623023236418,0.4315361842597522,0.1488465164831703,-0.2190977576553397,-0.1263508408904375,0.4094739618097704,788.5347985347986,792.1611721611722,794.5787545787546,803.4432234432235,809.4871794871796,840.9157509157509,-0.147278,-0.048645,0.98584,3.22998,0.433655,1.502838,1.0,1.0,1.0,1.0,1.0,75.0,,1637402255.518
0.4403551422903387,-0.3999725858566732,0.1541837297660201,0.5506385313013392,0.218690232413608,-0.3033172644854072,-0.0730099836818283,0.2168706679335436,0.4889844696692726,0.147830937408007,0.1705055598696998,0.6255707556278042,0.4417622190239765,0.0144410725312823,0.2991623023236418,0.4315361842597522,0.1488465164831703,-0.2190977576553397,-0.1263508408904375,0.4094739618097704,779.2673992673992,791.3553113553114,799.0109890109891,796.1904761904763,806.2637362637363,1229.340659340659,-0.147278,-0.048645,0.98584,3.22998,0.433655,1.502838,1.0,1.0,1.0,1.0,1.0,75.0,,1637402255.518
0.4403551422903387,-0.3999725858566732,0.1541837297660201,0.5506385313013392,0.218690232413608,-0.3033172644854072,-0.0730099836818283,0.2168706679335436,0.4889844696692726,0.147830937408007,0.1705055598696998,0.6255707556278042,0.4417622190239765,0.0144410725312823,0.2991623023236418,0.4315361842597522,0.1488465164831703,-0.2190977576553397,-0.1263508408904375,0.4094739618097704,781.2820512820513,791.3553113553114,795.7875457875458,786.9230769230769,862.2710622710623,1043.589743589744,-0.147278,-0.048645,0.98584,3.22998,0.433655,1.502838,1.0,1.0,1.0,1.0,1.0,75.0,,1637402255.519
0.4403551422903387,-0.3999725858566732,0.1541837297660201,0.5506385313013392,0.218690232413608,-0.3033172644854072,-0.0730099836818283,0.2168706679335436,0.4889844696692726,0.147830937408007,0.1705055598696998,0.6255707556278042,0.4417622190239765,0.0144410725312823,0.2991623023236418,0.4315361842597522,0.1488465164831703,-0.2190977576553397,-0.1263508408904375,0.4094739618097704,796.5934065934066,795.7875457875458,793.3699633699634,789.7435897435897,907.3992673992674,759.5238095238095,-0.147278,-0.048645,0.98584,3.22998,0.433655,1.502838,1.0,1.0,1.0,1.0,1.0,75.0,,1637402255.519
0.4403551422903387,-0.3999725858566732,0.1541837297660201,0.5506385313013392,0.218690232413608,-0.3033172644854072,-0.0730099836818283,0.2168706679335436,0.4889844696692726,0.147830937408007,0.1705055598696998,0.6255707556278042,0.4417622190239765,0.0144410725312823,0.2991623023236418,0.4315361842597522,0.1488465164831703,-0.2190977576553397,-0.1263508408904375,0.4094739618097704,801.8315018315019,803.4432234432235,796.1904761904763,792.967032967033,866.7032967032967,718.021978021978,-0.147278,-0.048645,0.98584,3.22998,0.433655,1.502838,1.0,1.0,1.0,1.0,1.0,75.0,,1637402255.52
0.4403551422903387,-0.3999725858566732,0.1541837297660201,0.5506385313013392,0.218690232413608,-0.3033172644854072,-0.0730099836818283,0.2168706679335436,0.4889844696692726,0.147830937408007,0.1705055598696998,0.6255707556278042,0.4417622190239765,0.0144410725312823,0.2991623023236418,0.4315361842597522,0.1488465164831703,-0.2190977576553397,-0.1263508408904375,0.4094739618097704,791.3553113553114,801.4285714285714,799.0109890109891,799.8168498168499,873.1501831501831,794.1758241758242,-0.147278,-0.048645,0.98584,3.22998,0.433655,1.502838,1.0,1.0,1.0,1.0,1.0,75.0,,1637402255.52
0.4403551422903387,-0.3999725858566732,0.1541837297660201,0.5506385313013392,0.218690232413608,-0.3033172644854072,-0.0730099836818283,0.2168706679335436,0.4889844696692726,0.147830937408007,0.1705055598696998,0.6255707556278042,0.4417622190239765,0.0144410725312823,0.2991623023236418,0.4315361842597522,0.1488465164831703,-0.2190977576553397,-0.1263508408904375,0.4094739618097704,794.5787545787546,797.3992673992674,794.5787545787546,802.6373626373627,916.2637362637364,1009.340659340659,-0.147278,-0.048645,0.98584,3.22998,0.433655,1.502838,1.0,1.0,1.0,1.0,1.0,75.0,,1637402255.521
0.4403551422903387,-0.3999725858566732,0.1541837297660201,0.5506385313013392,0.218690232413608,-0.3033172644854072,-0.0730099836818283,0.2168706679335436,0.4889844696692726,0.147830937408007,0.1705055598696998,0.6255707556278042,0.4417622190239765,0.0144410725312823,0.2991623023236418,0.4315361842597522,0.1488465164831703,-0.2190977576553397,-0.1263508408904375,0.4094739618097704,800.2197802197802,798.2051282051282,796.1904761904763,803.4432234432235,876.3736263736264,909.0109890109892,-0.149475,-0.048584,0.977112,3.013153,0.829926,2.444916,1.0,1.0,1.0,1.0,1.0,75.0,,1637402255.585
0.4403551422903387,-0.3999725858566732,0.1541837297660201,0.5506385313013392,0.218690232413608,-0.3033172644854072,-0.0730099836818283,0.2168706679335436,0.4889844696692726,0.147830937408007,0.1705055598696998,0.6255707556278042,0.4417622190239765,0.0144410725312823,0.2991623023236418,0.4315361842597522,0.1488465164831703,-0.2190977576553397,-0.1263508408904375,0.4094739618097704,789.3406593406594,803.040293040293,799.8168498168499,805.054945054945,770.8058608058608,773.6263736263736,-0.149475,-0.048584,0.977112,3.013153,0.829926,2.444916,1.0,1.0,1.0,1.0,1.0,75.0,,1637402255.586
0.4403551422903387,-0.3999725858566732,0.1541837297660201,0.5506385313013392,0.218690232413608,-0.3033172644854072,-0.0730099836818283,0.2168706679335436,0.4889844696692726,0.147830937408007,0.1705055598696998,0.6255707556278042,0.4417622190239765,0.0144410725312823,0.2991623023236418,0.4315361842597522,0.1488465164831703,-0.2190977576553397,-0.1263508408904375,0.4094739618097704,788.1318681318681,806.2637362637363,804.6520146520147,798.6080586080586,749.047619047619,937.2161172161173,-0.149475,-0.048584,0.977112,3.013153,0.829926,2.444916,1.0,1.0,1.0,1.0,1.0,75.0,,1637402255.587
0.4403551422903387,-0.3999725858566732,0.1541837297660201,0.5506385313013392,0.218690232413608,-0.3033172644854072,-0.0730099836818283,0.2168706679335436,0.4889844696692726,0.147830937408007,0.1705055598696998,0.6255707556278042,0.4417622190239765,0.0144410725312823,0.2991623023236418,0.4315361842597522,0.1488465164831703,-0.2190977576553397,-0.1263508408904375,0.4094739618097704,795.7875457875458,797.3992673992674,810.2930402930403,794.981684981685,851.7948717948718,840.5128205128206,-0.149475,-0.048584,0.977112,3.013153,0.829926,2.444916,1.0,1.0,1.0,1.0,1.0,75.0,,1637402255.587
0.4403551422903387,-0.3999725858566732,0.1541837297660201,0.5506385313013392,0.218690232413608,-0.3033172644854072,-0.0730099836818283,0.2168706679335436,0.4889844696692726,0.147830937408007,0.1705055598696998,0.6255707556278042,0.4417622190239765,0.0144410725312823,0.2991623023236418,0.4315361842597522,0.1488465164831703,-0.2190977576553397,-0.1263508408904375,0.4094739618097704,788.1318681318681,798.6080586080586,802.2344322344322,791.3553113553114,859.047619047619,710.7692307692308,-0.149475,-0.048584,0.977112,3.013153,0.829926,2.444916,1.0,1.0,1.0,1.0,1.0,75.0,,1637402255.588
0.4403551422903387,-0.3999725858566732,0.1541837297660201,0.5506385313013392,0.218690232413608,-0.3033172644854072,-0.0730099836818283,0.2168706679335436,0.4889844696692726,0.147830937408007,0.1705055598696998,0.6255707556278042,0.4417622190239765,0.0144410725312823,0.2991623023236418,0.4315361842597522,0.1488465164831703,-0.2190977576553397,-0.1263508408904375,0.4094739618097704,786.1172161172161,806.6666666666667,795.3846153846154,790.952380952381,813.919413919414,809.8901098901099,-0.149475,-0.048584,0.977112,3.013153,0.829926,2.444916,1.0,1.0,1.0,1.0,1.0,75.0,,1637402255.588
0.4403551422903387,-0.3999725858566732,0.1541837297660201,0.5506385313013392,0.218690232413608,-0.3033172644854072,-0.0730099836818283,0.2168706679335436,0.4889844696692726,0.147830937408007,0.1705055598696998,0.6255707556278042,0.4417622190239765,0.0144410725312823,0.2991623023236418,0.4315361842597522,0.1488465164831703,-0.2190977576553397,-0.1263508408904375,0.4094739618097704,793.3699633699634,809.4871794871796,797.3992673992674,796.996336996337,760.3296703296703,1107.655677655678,-0.149475,-0.048584,0.977112,3.013153,0.829926,2.444916,1.0,1.0,1.0,1.0,1.0,75.0,,1637402255.589
0.4403551422903387,-0.3999725858566732,0.1541837297660201,0.5506385313013392,0.218690232413608,-0.3033172644854072,-0.0730099836818283,0.2168706679335436,0.4889844696692726,0.147830937408007,0.1705055598696998,0.6255707556278042,0.4417622190239765,0.0144410725312823,0.2991623023236418,0.4315361842597522,0.1488465164831703,-0.2190977576553397,-0.1263508408904375,0.4094739618097704,792.967032967033,810.6959706959707,799.8168498168499,798.2051282051282,759.92673992674,1013.772893772894,-0.149475,-0.048584,0.977112,3.013153,0.829926,2.444916,1.0,1.0,1.0,1.0,1.0,75.0,,1637402255.589
0.4403551422903387,-0.3999725858566732,0.1541837297660201,0.5506385313013392,0.218690232413608,-0.3033172644854072,-0.0730099836818283,0.2168706679335436,0.4889844696692726,0.147830937408007,0.1705055598696998,0.6255707556278042,0.4417622190239765,0.0144410725312823,0.2991623023236418,0.4315361842597522,0.1488465164831703,-0.2190977576553397,-0.1263508408904375,0.4094739618097704,796.1904761904763,806.2637362637363,800.6227106227107,801.4285714285714,838.0952380952381,734.1391941391942,-0.149475,-0.048584,0.977112,3.013153,0.829926,2.444916,1.0,1.0,1.0,1.0,1.0,75.0,,1637402255.59
0.4403551422903387,-0.3999725858566732,0.1541837297660201,0.5506385313013392,0.218690232413608,-0.3033172644854072,-0.0730099836818283,0.2168706679335436,0.4889844696692726,0.147830937408007,0.1705055598696998,0.6255707556278042,0.4417622190239765,0.0144410725312823,0.2991623023236418,0.4315361842597522,0.1488465164831703,-0.2190977576553397,-0.1263508408904375,0.4094739618097704,801.025641025641,803.4432234432235,797.3992673992674,803.8461538461539,808.6813186813187,614.8717948717949,-0.149475,-0.048584,0.977112,3.013153,0.829926,2.444916,1.0,1.0,1.0,1.0,1.0,75.0,,1637402255.59
0.4403551422903387,-0.3999725858566732,0.1541837297660201,0.5506385313013392,0.218690232413608,-0.3033172644854072,-0.0730099836818283,0.2168706679335436,0.4889844696692726,0.147830937408007,0.1705055598696998,0.6255707556278042,0.4417622190239765,0.0144410725312823,0.2991623023236418,0.4315361842597522,0.1488465164831703,-0.2190977576553397,-0.1263508408904375,0.4094739618097704,799.4139194139194,805.4578754578755,797.8021978021978,803.8461538461539,810.2930402930403,712.3809523809524,-0.149475,-0.048584,0.977112,3.013153,0.829926,2.444916,1.0,1.0,1.0,1.0,1.0,75.0,,1637402255.591
0.4200522671946284,-0.3674461210903571,0.124445928143296,0.504595032788809,0.2163450030581428,-0.3006794991141832,-0.10396253502009,0.2202563987512671,0.4866437518660905,0.1542669790499518,0.1671532303995698,0.6216453705208709,0.4671928111948668,-0.0002305993516931,0.2894544364789645,0.433567237082441,0.1308136252676053,-0.227217163798325,-0.1284404830765765,0.4017228091941099,797.3992673992674,808.6813186813187,805.8608058608058,809.0842490842491,882.014652014652,782.0879120879121,-0.149475,-0.048584,0.977112,3.013153,0.829926,2.444916,1.0,1.0,1.0,1.0,1.0,75.0,,1637402255.591
0.4200522671946284,-0.3674461210903571,0.124445928143296,0.504595032788809,0.2163450030581428,-0.3006794991141832,-0.10396253502009,0.2202563987512671,0.4866437518660905,0.1542669790499518,0.1671532303995698,0.6216453705208709,0.4671928111948668,-0.0002305993516931,0.2894544364789645,0.433567237082441,0.1308136252676053,-0.227217163798325,-0.1284404830765765,0.4017228091941099,801.025641025641,808.2783882783883,800.2197802197802,804.6520146520147,868.7179487179487,765.9706959706959,-0.145935,-0.041321,0.972107,3.117828,0.70282,2.100983,1.0,1.0,1.0,1.0,1.0,75.0,,1637402255.594
0.4200522671946284,-0.3674461210903571,0.124445928143296,0.504595032788809,0.2163450030581428,-0.3006794991141832,-0.10396253502009,0.2202563987512671,0.4866437518660905,0.1542669790499518,0.1671532303995698,0.6216453705208709,0.4671928111948668,-0.0002305993516931,0.2894544364789645,0.433567237082441,0.1308136252676053,-0.227217163798325,-0.1284404830765765,0.4017228091941099,805.054945054945,804.6520146520147,797.3992673992674,799.8168498168499,843.3333333333334,783.2967032967033,-0.145935,-0.041321,0.972107,3.117828,0.70282,2.100983,1.0,1.0,1.0,1.0,1.0,75.0,,1637402255.595
0.4200522671946284,-0.3674461210903571,0.124445928143296,0.504595032788809,0.2163450030581428,-0.3006794991141832,-0.10396253502009,0.2202563987512671,0.4866437518660905,0.1542669790499518,0.1671532303995698,0.6216453705208709,0.4671928111948668,-0.0002305993516931,0.2894544364789645,0.433567237082441,0.1308136252676053,-0.227217163798325,-0.1284404830765765,0.4017228091941099,800.6227106227107,804.2490842490843,804.2490842490843,798.6080586080586,832.8571428571429,924.7252747252747,-0.145935,-0.041321,0.972107,3.117828,0.70282,2.100983,1.0,1.0,1.0,1.0,1.0,75.0,,1637402255.595
0.4200522671946284,-0.3674461210903571,0.124445928143296,0.504595032788809,0.2163450030581428,-0.3006794991141832,-0.10396253502009,0.2202563987512671,0.4866437518660905,0.1542669790499518,0.1671532303995698,0.6216453705208709,0.4671928111948668,-0.0002305993516931,0.2894544364789645,0.433567237082441,0.1308136252676053,-0.227217163798325,-0.1284404830765765,0.4017228091941099,805.054945054945,804.2490842490843,806.2637362637363,800.6227106227107,866.3003663003664,896.1172161172161,-0.145935,-0.041321,0.972107,3.117828,0.70282,2.100983,1.0,1.0,1.0,1.0,1.0,75.0,,1637402255.596
0.4200522671946284,-0.3674461210903571,0.124445928143296,0.504595032788809,0.2163450030581428,-0.3006794991141832,-0.10396253502009,0.2202563987512671,0.4866437518660905,0.1542669790499518,0.1671532303995698,0.6216453705208709,0.4671928111948668,-0.0002305993516931,0.2894544364789645,0.433567237082441,0.1308136252676053,-0.227217163798325,-0.1284404830765765,0.4017228091941099,809.0842490842491,806.2637362637363,805.8608058608058,809.0842490842491,806.2637362637363,681.7582417582418,-0.145935,-0.041321,0.972107,3.117828,0.70282,2.100983,1.0,1.0,1.0,1.0,1.0,75.0,,1637402255.596
0.4200522671946284,-0.3674461210903571,0.124445928143296,0.504595032788809,0.2163450030581428,-0.3006794991141832,-0.10396253502009,0.2202563987512671,0.4866437518660905,0.1542669790499518,0.1671532303995698,0.6216453705208709,0.4671928111948668,-0.0002305993516931,0.2894544364789645,0.433567237082441,0.1308136252676053,-0.227217163798325,-0.1284404830765765,0.4017228091941099,799.8168498168499,801.8315018315019,799.0109890109891,807.8754578754579,726.0805860805862,813.1135531135532,-0.145935,-0.041321,0.972107,3.117828,0.70282,2.100983,1.0,1.0,1.0,1.0,1.0,75.0,,1637402255.597
0.4200522671946284,-0.3674461210903571,0.124445928143296,0.504595032788809,0.2163450030581428,-0.3006794991141832,-0.10396253502009,0.2202563987512671,0.4866437518660905,0.1542669790499518,0.1671532303995698,0.6216453705208709,0.4671928111948668,-0.0002305993516931,0.2894544364789645,0.433567237082441,0.1308136252676053,-0.227217163798325,-0.1284404830765765,0.4017228091941099,790.5494505494506,801.4285714285714,792.5641025641025,799.0109890109891,711.1721611721612,1012.967032967033,-0.145935,-0.041321,0.972107,3.117828,0.70282,2.100983,1.0,1.0,1.0,1.0,1.0,75.0,,1637402255.597
0.4200522671946284,-0.3674461210903571,0.124445928143296,0.504595032788809,0.2163450030581428,-0.3006794991141832,-0.10396253502009,0.2202563987512671,0.4866437518660905,0.1542669790499518,0.1671532303995698,0.6216453705208709,0.4671928111948668,-0.0002305993516931,0.2894544364789645,0.433567237082441,0.1308136252676053,-0.227217163798325,-0.1284404830765765,0.4017228091941099,795.7875457875458,807.8754578754579,792.5641025641025,799.0109890109891,700.2930402930403,838.4981684981685,-0.145935,-0.041321,0.972107,3.117828,0.70282,2.100983,1.0,1.0,1.0,1.0,1.0,75.0,,1637402255.598
0.4200522671946284,-0.3674461210903571,0.124445928143296,0.504595032788809,0.2163450030581428,-0.3006794991141832,-0.10396253502009,0.2202563987512671,0.4866437518660905,0.1542669790499518,0.1671532303995698,0.6216453705208709,0.4671928111948668,-0.0002305993516931,0.2894544364789645,0.433567237082441,0.1308136252676053,-0.227217163798325,-0.1284404830765765,0.4017228091941099,803.8461538461539,804.2490842490843,794.981684981685,801.4285714285714,732.1245421245421,558.8644688644689,-0.145935,-0.041321,0.972107,3.117828,0.70282,2.100983,1.0,1.0,1.0,1.0,1.0,75.0,,1637402255.598
0.4200522671946284,-0.3674461210903571,0.124445928143296,0.504595032788809,0.2163450030581428,-0.3006794991141832,-0.10396253502009,0.2202563987512671,0.4866437518660905,0.1542669790499518,0.1671532303995698,0.6216453705208709,0.4671928111948668,-0.0002305993516931,0.2894544364789645,0.433567237082441,0.1308136252676053,-0.227217163798325,-0.1284404830765765,0.4017228091941099,797.3992673992674,796.996336996337,791.7582417582418,801.025641025641,727.6923076923077,481.5018315018315,-0.145935,-0.041321,0.972107,3.117828,0.70282,2.100983,1.0,1.0,1.0,1.0,1.0,75.0,,1637402255.599
0.4200522671946284,-0.3674461210903571,0.124445928143296,0.504595032788809,0.2163450030581428,-0.3006794991141832,-0.10396253502009,0.2202563987512671,0.4866437518660905,0.1542669790499518,0.1671532303995698,0.6216453705208709,0.4671928111948668,-0.0002305993516931,0.2894544364789645,0.433567237082441,0.1308136252676053,-0.227217163798325,-0.1284404830765765,0.4017228091941099,797.8021978021978,803.8461538461539,787.7289377289378,802.2344322344322,707.1428571428571,593.919413919414,-0.145935,-0.041321,0.972107,3.117828,0.70282,2.100983,1.0,1.0,1.0,1.0,1.0,75.0,,1637402255.599
0.4200522671946284,-0.3674461210903571,0.124445928143296,0.504595032788809,0.2163450030581428,-0.3006794991141832,-0.10396253502009,0.2202563987512671,0.4866437518660905,0.1542669790499518,0.1671532303995698,0.6216453705208709,0.4671928111948668,-0.0002305993516931,0.2894544364789645,0.433567237082441,0.1308136252676053,-0.227217163798325,-0.1284404830765765,0.4017228091941099,797.8021978021978,806.6666666666667,790.952380952381,799.4139194139194,666.4468864468864,596.7399267399268,-0.145935,-0.041321,0.972107,3.117828,0.70282,2.100983,1.0,1.0,1.0,1.0,1.0,75.0,,1637402255.6
0.4200522671946284,-0.3674461210903571,0.124445928143296,0.504595032788809,0.2163450030581428,-0.3006794991141832,-0.10396253502009,0.2202563987512671,0.4866437518660905,0.1542669790499518,0.1671532303995698,0.6216453705208709,0.4671928111948668,-0.0002305993516931,0.2894544364789645,0.433567237082441,0.1308136252676053,-0.227217163798325,-0.1284404830765765,0.4017228091941099,792.967032967033,799.8168498168499,792.1611721611722,800.6227106227107,625.7509157509157,488.3516483516484,-0.145935,-0.041321,0.972107,3.117828,0.70282,2.100983,1.0,1.0,1.0,1.0,1.0,75.0,,1637402255.622
0.4200522671946284,-0.3674461210903571,0.124445928143296,0.504595032788809,0.2163450030581428,-0.3006794991141832,-0.10396253502009,0.2202563987512671,0.4866437518660905,0.1542669790499518,0.1671532303995698,0.6216453705208709,0.4671928111948668,-0.0002305993516931,0.2894544364789645,0.433567237082441,0.1308136252676053,-0.227217163798325,-0.1284404830765765,0.4017228091941099,805.8608058608058,803.4432234432235,794.5787545787546,801.8315018315019,627.3626373626374,680.952380952381,-0.145935,-0.041321,0.972107,3.117828,0.70282,2.100983,1.0,1.0,1.0,1.0,1.0,75.0,,1637402255.622
0.4200522671946284,-0.3674461210903571,0.124445928143296,0.504595032788809,0.2163450030581428,-0.3006794991141832,-0.10396253502009,0.2202563987512671,0.4866437518660905,0.1542669790499518,0.1671532303995698,0.6216453705208709,0.4671928111948668,-0.0002305993516931,0.2894544364789645,0.433567237082441,0.1308136252676053,-0.227217163798325,-0.1284404830765765,0.4017228091941099,812.7106227106227,804.2490842490843,799.4139194139194,800.6227106227107,603.5897435897436,751.8681318681319,-0.145935,-0.041321,0.972107,3.117828,0.70282,2.100983,1.0,1.0,1.0,1.0,1.0,75.0,,1637402255.623
0.4200522671946284,-0.3674461210903571,0.124445928143296,0.504595032788809,0.2163450030581428,-0.3006794991141832,-0.10396253502009,0.2202563987512671,0.4866437518660905,0.1542669790499518,0.1671532303995698,0.6216453705208709,0.4671928111948668,-0.0002305993516931,0.2894544364789645,0.433567237082441,0.1308136252676053,-0.227217163798325,-0.1284404830765765,0.4017228091941099,805.4578754578755,800.6227106227107,797.3992673992674,797.8021978021978,643.4798534798535,559.6703296703297,-0.145935,-0.041321,0.972107,3.117828,0.70282,2.100983,1.0,1.0,1.0,1.0,1.0,75.0,,1637402255.623
0.4200522671946284,-0.3674461210903571,0.124445928143296,0.504595032788809,0.2163450030581428,-0.3006794991141832,-0.10396253502009,0.2202563987512671,0.4866437518660905,0.1542669790499518,0.1671532303995698,0.6216453705208709,0.4671928111948668,-0.0002305993516931,0.2894544364789645,0.433567237082441,0.1308136252676053,-0.227217163798325,-0.1284404830765765,0.4017228091941099,798.2051282051282,799.4139194139194,801.4285714285714,792.1611721611722,711.5750915750916,781.2820512820513,-0.145935,-0.041321,0.972107,3.117828,0.70282,2.100983,1.0,1.0,1.0,1.0,1.0,75.0,,1637402255.623
0.4200522671946284,-0.3674461210903571,0.124445928143296,0.504595032788809,0.2163450030581428,-0.3006794991141832,-0.10396253502009,0.2202563987512671,0.4866437518660905,0.1542669790499518,0.1671532303995698,0.6216453705208709,0.4671928111948668,-0.0002305993516931,0.2894544364789645,0.433567237082441,0.1308136252676053,-0.227217163798325,-0.1284404830765765,0.4017228091941099,805.4578754578755,800.2197802197802,809.0842490842491,797.3992673992674,739.7802197802198,977.5091575091576,-0.145935,-0.041321,0.972107,3.117828,0.70282,2.100983,1.0,1.0,1.0,1.0,1.0,75.0,,1637402255.624
0.4200522671946284,-0.3674461210903571,0.124445928143296,0.504595032788809,0.2163450030581428,-0.3006794991141832,-0.10396253502009,0.2202563987512671,0.4866437518660905,0.1542669790499518,0.1671532303995698,0.6216453705208709,0.4671928111948668,-0.0002305993516931,0.2894544364789645,0.433567237082441,0.1308136252676053,-0.227217163798325,-0.1284404830765765,0.4017228091941099,814.3223443223443,807.8754578754579,806.6666666666667,803.4432234432235,739.7802197802198,1031.098901098901,-0.145935,-0.041321,0.972107,3.117828,0.70282,2.100983,1.0,1.0,1.0,1.0,1.0,75.0,,1637402255.624
0.4200522671946284,-0.3674461210903571,0.124445928143296,0.504595032788809,0.2163450030581428,-0.3006794991141832,-0.10396253502009,0.2202563987512671,0.4866437518660905,0.1542669790499518,0.1671532303995698,0.6216453705208709,0.4671928111948668,-0.0002305993516931,0.2894544364789645,0.433567237082441,0.1308136252676053,-0.227217163798325,-0.1284404830765765,0.4017228091941099,801.025641025641,806.6666666666667,803.040293040293,807.8754578754579,768.3882783882784,904.981684981685,-0.145935,-0.041321,0.972107,3.117828,0.70282,2.100983,1.0,1.0,1.0,1.0,1.0,75.0,,1637402255.625
0.4200522671946284,-0.3674461210903571,0.124445928143296,0.504595032788809,0.2163450030581428,-0.3006794991141832,-0.10396253502009,0.2202563987512671,0.4866437518660905,0.1542669790499518,0.1671532303995698,0.6216453705208709,0.4671928111948668,-0.0002305993516931,0.2894544364789645,0.433567237082441,0.1308136252676053,-0.227217163798325,-0.1284404830765765,0.4017228091941099,790.952380952381,801.8315018315019,803.040293040293,811.5018315018315,786.9230769230769,618.901098901099,-0.145935,-0.041321,0.972107,3.117828,0.70282,2.100983,1.0,1.0,1.0,1.0,1.0,75.0,,1637402255.625
0.4200522671946284,-0.3674461210903571,0.124445928143296,0.504595032788809,0.2163450030581428,-0.3006794991141832,-0.10396253502009,0.2202563987512671,0.4866437518660905,0.1542669790499518,0.1671532303995698,0.6216453705208709,0.4671928111948668,-0.0002305993516931,0.2894544364789645,0.433567237082441,0.1308136252676053,-0.227217163798325,-0.1284404830765765,0.4017228091941099,794.5787545787546,802.2344322344322,801.4285714285714,810.6959706959707,813.1135531135532,580.6227106227107,-0.145935,-0.041321,0.972107,3.117828,0.70282,2.100983,1.0,1.0,1.0,1.0,1.0,75.0,,1637402255.625
0.4200522671946284,-0.3674461210903571,0.124445928143296,0.504595032788809,0.2163450030581428,-0.3006794991141832,-0.10396253502009,0.2202563987512671,0.4866437518660905,0.1542669790499518,0.1671532303995698,0.6216453705208709,0.4671928111948668,-0.0002305993516931,0.2894544364789645,0.433567237082441,0.1308136252676053,-0.227217163798325,-0.1284404830765765,0.4017228091941099,794.981684981685,803.8461538461539,794.1758241758242,802.2344322344322,920.6959706959708,795.7875457875458,-0.145935,-0.041321,0.972107,3.117828,0.70282,2.100983,1.0,1.0,1.0,1.0,1.0,75.0,,1637402255.626
0.4200522671946284,-0.3674461210903571,0.124445928143296,0.504595032788809,0.2163450030581428,-0.3006794991141832,-0.10396253502009,0.2202563987512671,0.4866437518660905,0.1542669790499518,0.1671532303995698,0.6216453705208709,0.4671928111948668,-0.0002305993516931,0.2894544364789645,0.433567237082441,0.1308136252676053,-0.227217163798325,-0.1284404830765765,0.4017228091941099,790.952380952381,801.8315018315019,786.1172161172161,784.5054945054945,906.1904761904764,817.1428571428571,-0.145935,-0.041321,0.972107,3.117828,0.70282,2.100983,1.0,1.0,1.0,1.0,1.0,75.0,,1637402255.626
0.4200522671946284,-0.3674461210903571,0.124445928143296,0.504595032788809,0.2163450030581428,-0.3006794991141832,-0.10396253502009,0.2202563987512671,0.4866437518660905,0.1542669790499518,0.1671532303995698,0.6216453705208709,0.4671928111948668,-0.0002305993516931,0.2894544364789645,0.433567237082441,0.1308136252676053,-0.227217163798325,-0.1284404830765765,0.4017228091941099,790.5494505494506,795.3846153846154,783.2967032967033,780.4761904761905,805.054945054945,639.4505494505495,-0.145691,-0.045288,0.973389,3.491669,0.523376,1.667328,1.0,1.0,1.0,1.0,1.0,75.0,,1637402255.67
0.3978489329159105,-0.2924147502253184,0.0782047144201294,0.4458870712649301,0.2117388704509008,-0.2947339765831988,-0.1306540042445441,0.2207756556429875,0.4802166927140024,0.210103691937333,0.1671532303995698,0.6040831120142054,0.4777405819636576,-0.0184367163841498,0.2761891649833061,0.4460423851061764,0.1131908779508827,-0.2437266046102076,-0.1314086424055986,0.4002123440609967,796.1904761904763,796.5934065934066,785.3113553113553,784.5054945054945,784.5054945054945,600.3663003663004,-0.145691,-0.045288,0.973389,3.491669,0.523376,1.667328,1.0,1.0,1.0,1.0,1.0,75.0,,1637402255.67
0.3978489329159105,-0.2924147502253184,0.0782047144201294,0.4458870712649301,0.2117388704509008,-0.2947339765831988,-0.1306540042445441,0.2207756556429875,0.4802166927140024,0.210103691937333,0.1671532303995698,0.6040831120142054,0.4777405819636576,-0.0184367163841498,0.2761891649833061,0.4460423851061764,0.1131908779508827,-0.2437266046102076,-0.1314086424055986,0.4002123440609967,797.3992673992674,799.0109890109891,789.7435897435897,789.3406593406594,763.5531135531136,680.1465201465202,-0.145691,-0.045288,0.973389,3.491669,0.523376,1.667328,1.0,1.0,1.0,1.0,1.0,75.0,,1637402255.671
0.3978489329159105,-0.2924147502253184,0.0782047144201294,0.4458870712649301,0.2117388704509008,-0.2947339765831988,-0.1306540042445441,0.2207756556429875,0.4802166927140024,0.210103691937333,0.1671532303995698,0.6040831120142054,0.4777405819636576,-0.0184367163841498,0.2761891649833061,0.4460423851061764,0.1131908779508827,-0.2437266046102076,-0.1314086424055986,0.4002123440609967,790.952380952381,796.996336996337,789.3406593406594,792.1611721611722,778.4615384615385,759.5238095238095,-0.145691,-0.045288,0.973389,3.491669,0.523376,1.667328,1.0,1.0,1.0,1.0,1.0,75.0,,1637402255.672
0.3978489329159105,-0.2924147502253184,0.0782047144201294,0.4458870712649301,0.2117388704509008,-0.2947339765831988,-0.1306540042445441,0.2207756556429875,0.4802166927140024,0.210103691937333,0.1671532303995698,0.6040831120142054,0.4777405819636576,-0.0184367163841498,0.2761891649833061,0.4460423851061764,0.1131908779508827,-0.2437266046102076,-0.1314086424055986,0.4002123440609967,784.5054945054945,790.5494505494506,785.7142857142858,788.1318681318681,813.5164835164835,676.9230769230769,-0.145691,-0.045288,0.973389,3.491669,0.523376,1.667328,1.0,1.0,1.0,1.0,1.0,75.0,,1637402255.672
0.3978489329159105,-0.2924147502253184,0.0782047144201294,0.4458870712649301,0.2117388704509008,-0.2947339765831988,-0.1306540042445441,0.2207756556429875,0.4802166927140024,0.210103691937333,0.1671532303995698,0.6040831120142054,0.4777405819636576,-0.0184367163841498,0.2761891649833061,0.4460423851061764,0.1131908779508827,-0.2437266046102076,-0.1314086424055986,0.4002123440609967,792.967032967033,789.7435897435897,789.7435897435897,795.7875457875458,796.1904761904763,761.941391941392,-0.145691,-0.045288,0.973389,3.491669,0.523376,1.667328,1.0,1.0,1.0,1.0,1.0,75.0,,1637402255.672
0.3978489329159105,-0.2924147502253184,0.0782047144201294,0.4458870712649301,0.2117388704509008,-0.2947339765831988,-0.1306540042445441,0.2207756556429875,0.4802166927140024,0.210103691937333,0.1671532303995698,0.6040831120142054,0.4777405819636576,-0.0184367163841498,0.2761891649833061,0.4460423851061764,0.1131908779508827,-0.2437266046102076,-0.1314086424055986,0.4002123440609967,796.5934065934066,799.4139194139194,790.5494505494506,803.4432234432235,813.1135531135532,1140.29304029304,-0.145691,-0.045288,0.973389,3.491669,0.523376,1.667328,1.0,1.0,1.0,1.0,1.0,75.0,,1637402255.672
0.3978489329159105,-0.2924147502253184,0.0782047144201294,0.4458870712649301,0.2117388704509008,-0.2947339765831988,-0.1306540042445441,0.2207756556429875,0.4802166927140024,0.210103691937333,0.1671532303995698,0.6040831120142054,0.4777405819636576,-0.0184367163841498,0.2761891649833061,0.4460423851061764,0.1131908779508827,-0.2437266046102076,-0.1314086424055986,0.4002123440609967,794.1758241758242,799.4139194139194,788.5347985347986,798.2051282051282,824.7985347985348,1193.479853479854,-0.145691,-0.045288,0.973389,3.491669,0.523376,1.667328,1.0,1.0,1.0,1.0,1.0,75.0,,1637402255.673
0.3978489329159105,-0.2924147502253184,0.0782047144201294,0.4458870712649301,0.2117388704509008,-0.2947339765831988,-0.1306540042445441,0.2207756556429875,0.4802166927140024,0.210103691937333,0.1671532303995698,0.6040831120142054,0.4777405819636576,-0.0184367163841498,0.2761891649833061,0.4460423851061764,0.1131908779508827,-0.2437266046102076,-0.1314086424055986,0.4002123440609967,796.996336996337,791.3553113553114,784.9084249084249,797.8021978021978,837.2893772893773,921.5018315018316,-0.145691,-0.045288,0.973389,3.491669,0.523376,1.667328,1.0,1.0,1.0,1.0,1.0,75.0,,1637402255.673
0.3978489329159105,-0.2924147502253184,0.0782047144201294,0.4458870712649301,0.2117388704509008,-0.2947339765831988,-0.1306540042445441,0.2207756556429875,0.4802166927140024,0.210103691937333,0.1671532303995698,0.6040831120142054,0.4777405819636576,-0.0184367163841498,0.2761891649833061,0.4460423851061764,0.1131908779508827,-0.2437266046102076,-0.1314086424055986,0.4002123440609967,800.2197802197802,786.9230769230769,785.7142857142858,802.6373626373627,840.5128205128206,718.4249084249085,-0.145691,-0.045288,0.973389,3.491669,0.523376,1.667328,1.0,1.0,1.0,1.0,1.0,75.0,,1637402255.673
0.3978489329159105,-0.2924147502253184,0.0782047144201294,0.4458870712649301,0.2117388704509008,-0.2947339765831988,-0.1306540042445441,0.2207756556429875,0.4802166927140024,0.210103691937333,0.1671532303995698,0.6040831120142054,0.4777405819636576,-0.0184367163841498,0.2761891649833061,0.4460423851061764,0.1131908779508827,-0.2437266046102076,-0.1314086424055986,0.4002123440609967,799.0109890109891,795.3846153846154,787.7289377289378,804.2490842490843,792.967032967033,705.5311355311355,-0.145691,-0.045288,0.973389,3.491669,0.523376,1.667328,1.0,1.0,1.0,1.0,1.0,75.0,,1637402255.674
0.3978489329159105,-0.2924147502253184,0.0782047144201294,0.4458870712649301,0.2117388704509008,-0.2947339765831988,-0.1306540042445441,0.2207756556429875,0.4802166927140024,0.210103691937333,0.1671532303995698,0.6040831120142054,0.4777405819636576,-0.0184367163841498,0.2761891649833061,0.4460423851061764,0.1131908779508827,-0.2437266046102076,-0.1314086424055986,0.4002123440609967,797.8021978021978,802.2344322344322,784.1025641025641,788.9377289377289,783.6996336996338,711.978021978022,-0.145691,-0.045288,0.973389,3.491669,0.523376,1.667328,1.0,1.0,1.0,1.0,1.0,75.0,,1637402255.674
0.3978489329159105,-0.2924147502253184,0.0782047144201294,0.4458870712649301,0.2117388704509008,-0.2947339765831988,-0.1306540042445441,0.2207756556429875,0.4802166927140024,0.210103691937333,0.1671532303995698,0.6040831120142054,0.4777405819636576,-0.0184367163841498,0.2761891649833061,0.4460423851061764,0.1131908779508827,-0.2437266046102076,-0.1314086424055986,0.4002123440609967,804.6520146520147,802.2344322344322,787.3260073260074,785.3113553113553,790.1465201465202,620.5128205128206,-0.146973,-0.040405,0.982178,3.02063,0.112152,2.235565,1.0,1.0,1.0,1.0,1.0,75.0,,1637402255.716
0.3978489329159105,-0.2924147502253184,0.0782047144201294,0.4458870712649301,0.2117388704509008,-0.2947339765831988,-0.1306540042445441,0.2207756556429875,0.4802166927140024,0.210103691937333,0.1671532303995698,0.6040831120142054,0.4777405819636576,-0.0184367163841498,0.2761891649833061,0.4460423851061764,0.1131908779508827,-0.2437266046102076,-0.1314086424055986,0.4002123440609967,803.4432234432235,803.8461538461539,792.5641025641025,791.7582417582418,718.4249084249085,692.6373626373627,-0.146973,-0.040405,0.982178,3.02063,0.112152,2.235565,1.0,1.0,1.0,1.0,1.0,75.0,,1637402255.717
0.3978489329159105,-0.2924147502253184,0.0782047144201294,0.4458870712649301,0.2117388704509008,-0.2947339765831988,-0.1306540042445441,0.2207756556429875,0.4802166927140024,0.210103691937333,0.1671532303995698,0.6040831120142054,0.4777405819636576,-0.0184367163841498,0.2761891649833061,0.4460423851061764,0.1131908779508827,-0.2437266046102076,-0.1314086424055986,0.4002123440609967,789.3406593406594,801.025641025641,789.3406593406594,790.952380952381,693.040293040293,842.1245421245421,-0.146973,-0.040405,0.982178,3.02063,0.112152,2.235565,1.0,1.0,1.0,1.0,1.0,75.0,,1637402255.718
0.3978489329159105,-0.2924147502253184,0.0782047144201294,0.4458870712649301,0.2117388704509008,-0.2947339765831988,-0.1306540042445441,0.2207756556429875,0.4802166927140024,0.210103691937333,0.1671532303995698,0.6040831120142054,0.4777405819636576,-0.0184367163841498,0.2761891649833061,0.4460423851061764,0.1131908779508827,-0.2437266046102076,-0.1314086424055986,0.4002123440609967,786.1172161172161,796.5934065934066,789.3406593406594,792.5641025641025,824.3956043956044,807.8754578754579,-0.146973,-0.040405,0.982178,3.02063,0.112152,2.235565,1.0,1.0,1.0,1.0,1.0,75.0,,1637402255.718
0.3978489329159105,-0.2924147502253184,0.0782047144201294,0.4458870712649301,0.2117388704509008,-0.2947339765831988,-0.1306540042445441,0.2207756556429875,0.4802166927140024,0.210103691937333,0.1671532303995698,0.6040831120142054,0.4777405819636576,-0.0184367163841498,0.2761891649833061,0.4460423851061764,0.1131908779508827,-0.2437266046102076,-0.1314086424055986,0.4002123440609967,801.025641025641,799.0109890109891,792.5641025641025,786.1172161172161,843.7362637362637,659.1941391941392,-0.146973,-0.040405,0.982178,3.02063,0.112152,2.235565,1.0,1.0,1.0,1.0,1.0,75.0,,1637402255.719
0.3978489329159105,-0.2924147502253184,0.0782047144201294,0.4458870712649301,0.2117388704509008,-0.2947339765831988,-0.1306540042445441,0.2207756556429875,0.4802166927140024,0.210103691937333,0.1671532303995698,0.6040831120142054,0.4777405819636576,-0.0184367163841498,0.2761891649833061,0.4460423851061764,0.1131908779508827,-0.2437266046102076,-0.1314086424055986,0.4002123440609967,810.6959706959707,806.2637362637363,793.7728937728938,785.3113553113553,722.4542124542124,591.5018315018315,-0.146973,-0.040405,0.982178,3.02063,0.112152,2.235565,1.0,1.0,1.0,1.0,1.0,75.0,,1637402255.719
0.3978489329159105,-0.2924147502253184,0.0782047144201294,0.4458870712649301,0.2117388704509008,-0.2947339765831988,-0.1306540042445441,0.2207756556429875,0.4802166927140024,0.210103691937333,0.1671532303995698,0.6040831120142054,0.4777405819636576,-0.0184367163841498,0.2761891649833061,0.4460423851061764,0.1131908779508827,-0.2437266046102076,-0.1314086424055986,0.4002123440609967,803.4432234432235,808.6813186813187,793.3699633699634,787.7289377289378,685.7875457875458,1044.395604395604,-0.146973,-0.040405,0.982178,3.02063,0.112152,2.235565,1.0,1.0,1.0,1.0,1.0,75.0,,1637402255.72
0.3978489329159105,-0.2924147502253184,0.0782047144201294,0.4458870712649301,0.2117388704509008,-0.2947339765831988,-0.1306540042445441,0.2207756556429875,0.4802166927140024,0.210103691937333,0.1671532303995698,0.6040831120142054,0.4777405819636576,-0.0184367163841498,0.2761891649833061,0.4460423851061764,0.1131908779508827,-0.2437266046102076,-0.1314086424055986,0.4002123440609967,794.1758241758242,797.8021978021978,790.1465201465202,790.1465201465202,708.7545787545788,1043.589743589744,-0.146973,-0.040405,0.982178,3.02063,0.112152,2.235565,1.0,1.0,1.0,1.0,1.0,75.0,,1637402255.72
0.3978489329159105,-0.2924147502253184,0.0782047144201294,0.4458870712649301,0.2117388704509008,-0.2947339765831988,-0.1306540042445441,0.2207756556429875,0.4802166927140024,0.210103691937333,0.1671532303995698,0.6040831120142054,0.4777405819636576,-0.0184367163841498,0.2761891649833061,0.4460423851061764,0.1131908779508827,-0.2437266046102076,-0.1314086424055986,0.4002123440609967,797.3992673992674,791.7582417582418,790.1465201465202,802.2344322344322,809.8901098901099,709.1575091575091,-0.146973,-0.040405,0.982178,3.02063,0.112152,2.235565,1.0,1.0,1.0,1.0,1.0,75.0,,1637402255.721
0.3978489329159105,-0.2924147502253184,0.0782047144201294,0.4458870712649301,0.2117388704509008,-0.2947339765831988,-0.1306540042445441,0.2207756556429875,0.4802166927140024,0.210103691937333,0.1671532303995698,0.6040831120142054,0.4777405819636576,-0.0184367163841498,0.2761891649833061,0.4460423851061764,0.1131908779508827,-0.2437266046102076,-0.1314086424055986,0.4002123440609967,798.6080586080586,798.2051282051282,789.3406593406594,806.2637362637363,832.8571428571429,717.6190476190476,-0.146973,-0.040405,0.982178,3.02063,0.112152,2.235565,1.0,1.0,1.0,1.0,1.0,75.0,,1637402255.721
0.3978489329159105,-0.2924147502253184,0.0782047144201294,0.4458870712649301,0.2117388704509008,-0.2947339765831988,-0.1306540042445441,0.2207756556429875,0.4802166927140024,0.210103691937333,0.1671532303995698,0.6040831120142054,0.4777405819636576,-0.0184367163841498,0.2761891649833061,0.4460423851061764,0.1131908779508827,-0.2437266046102076,-0.1314086424055986,0.4002123440609967,792.1611721611722,803.040293040293,792.5641025641025,802.6373626373627,837.6923076923077,821.978021978022,-0.146973,-0.040405,0.982178,3.02063,0.112152,2.235565,1.0,1.0,1.0,1.0,1.0,75.0,,1637402255.722
0.3978489329159105,-0.2924147502253184,0.0782047144201294,0.4458870712649301,0.2117388704509008,-0.2947339765831988,-0.1306540042445441,0.2207756556429875,0.4802166927140024,0.210103691937333,0.1671532303995698,0.6040831120142054,0.4777405819636576,-0.0184367163841498,0.2761891649833061,0.4460423851061764,0.1131908779508827,-0.2437266046102076,-0.1314086424055986,0.4002123440609967,785.7142857142858,805.8608058608058,789.7435897435897,797.3992673992674,844.1391941391942,779.2673992673992,-0.146973,-0.040405,0.982178,3.02063,0.112152,2.235565,1.0,1.0,1.0,1.0,1.0,75.0,,1637402255.722
0.3978489329159105,-0.2924147502253184,0.0782047144201294,0.4458870712649301,0.2117388704509008,-0.2947339765831988,-0.1306540042445441,0.2207756556429875,0.4802166927140024,0.210103691937333,0.1671532303995698,0.6040831120142054,0.4777405819636576,-0.0184367163841498,0.2761891649833061,0.4460423851061764,0.1131908779508827,-0.2437266046102076,-0.1314086424055986,0.4002123440609967,789.3406593406594,796.1904761904763,785.7142857142858,786.9230769230769,766.3736263736264,684.5787545787546,-0.148376,-0.047119,0.9776,2.968292,1.128998,0.508423,1.0,1.0,1.0,1.0,1.0,75.0,,1637402255.766
0.3978489329159105,-0.2924147502253184,0.0782047144201294,0.4458870712649301,0.2117388704509008,-0.2947339765831988,-0.1306540042445441,0.2207756556429875,0.4802166927140024,0.210103691937333,0.1671532303995698,0.6040831120142054,0.4777405819636576,-0.0184367163841498,0.2761891649833061,0.4460423851061764,0.1131908779508827,-0.2437266046102076,-0.1314086424055986,0.4002123440609967,799.4139194139194,789.7435897435897,792.967032967033,779.2673992673992,791.3553113553114,659.1941391941392,-0.148376,-0.047119,0.9776,2.968292,1.128998,0.508423,1.0,1.0,1.0,1.0,1.0,75.0,,1637402255.767
0.3978489329159105,-0.2924147502253184,0.0782047144201294,0.4458870712649301,0.2117388704509008,-0.2947339765831988,-0.1306540042445441,0.2207756556429875,0.4802166927140024,0.210103691937333,0.1671532303995698,0.6040831120142054,0.4777405819636576,-0.0184367163841498,0.2761891649833061,0.4460423851061764,0.1131908779508827,-0.2437266046102076,-0.1314086424055986,0.4002123440609967,796.5934065934066,796.996336996337,796.996336996337,790.1465201465202,832.4542124542124,744.2124542124542,-0.148376,-0.047119,0.9776,2.968292,1.128998,0.508423,1.0,1.0,1.0,1.0,1.0,75.0,,1637402255.767
0.3781010815485196,-0.2043028967802825,0.0214470406859564,0.3809735213974577,0.2103567363286576,-0.2645383278299145,-0.1473278315357012,0.2226592288163233,0.4608115306318434,0.3047128122385704,0.1671532303995698,0.5623978073270057,0.474999601492416,-0.0389626141431862,0.2661784102890513,0.467694921344914,0.0958338483029965,-0.2645857721808617,-0.1287275923989047,0.3972610395640015,784.9084249084249,799.4139194139194,789.7435897435897,793.3699633699634,813.5164835164835,759.92673992674,-0.148376,-0.047119,0.9776,2.968292,1.128998,0.508423,1.0,1.0,1.0,1.0,1.0,75.0,,1637402255.768
0.3781010815485196,-0.2043028967802825,0.0214470406859564,0.3809735213974577,0.2103567363286576,-0.2645383278299145,-0.1473278315357012,0.2226592288163233,0.4608115306318434,0.3047128122385704,0.1671532303995698,0.5623978073270057,0.474999601492416,-0.0389626141431862,0.2661784102890513,0.467694921344914,0.0958338483029965,-0.2645857721808617,-0.1287275923989047,0.3972610395640015,781.6849816849817,801.025641025641,786.9230769230769,782.893772893773,794.981684981685,722.0512820512821,-0.148376,-0.047119,0.9776,2.968292,1.128998,0.508423,1.0,1.0,1.0,1.0,1.0,75.0,,1637402255.769
0.3781010815485196,-0.2043028967802825,0.0214470406859564,0.3809735213974577,0.2103567363286576,-0.2645383278299145,-0.1473278315357012,0.2226592288163233,0.4608115306318434,0.3047128122385704,0.1671532303995698,0.5623978073270057,0.474999601492416,-0.0389626141431862,0.2661784102890513,0.467694921344914,0.0958338483029965,-0.2645857721808617,-0.1287275923989047,0.3972610395640015,785.3113553113553,799.4139194139194,788.1318681318681,791.3553113553114,736.959706959707,830.0366300366301,-0.148376,-0.047119,0.9776,2.968292,1.128998,0.508423,1.0,1.0,1.0,1.0,1.0,75.0,,1637402255.769
0.3781010815485196,-0.2043028967802825,0.0214470406859564,0.3809735213974577,0.2103567363286576,-0.2645383278299145,-0.1473278315357012,0.2226592288163233,0.4608115306318434,0.3047128122385704,0.1671532303995698,0.5623978073270057,0.474999601492416,-0.0389626141431862,0.2661784102890513,0.467694921344914,0.0958338483029965,-0.2645857721808617,-0.1287275923989047,0.3972610395640015,786.1172161172161,800.6227106227107,789.7435897435897,796.1904761904763,658.7912087912088,1096.776556776557,-0.148376,-0.047119,0.9776,2.968292,1.128998,0.508423,1.0,1.0,1.0,1.0,1.0,75.0,,1637402255.769
0.3781010815485196,-0.2043028967802825,0.0214470406859564,0.3809735213974577,0.2103567363286576,-0.2645383278299145,-0.1473278315357012,0.2226592288163233,0.4608115306318434,0.3047128122385704,0.1671532303995698,0.5623978073270057,0.474999601492416,-0.0389626141431862,0.2661784102890513,0.467694921344914,0.0958338483029965,-0.2645857721808617,-0.1287275923989047,0.3972610395640015,786.5201465201466,799.4139194139194,795.3846153846154,777.6556776556777,673.2967032967033,1009.340659340659,-0.148376,-0.047119,0.9776,2.968292,1.128998,0.508423,1.0,1.0,1.0,1.0,1.0,75.0,,1637402255.77
0.3781010815485196,-0.2043028967802825,0.0214470406859564,0.3809735213974577,0.2103567363286576,-0.2645383278299145,-0.1473278315357012,0.2226592288163233,0.4608115306318434,0.3047128122385704,0.1671532303995698,0.5623978073270057,0.474999601492416,-0.0389626141431862,0.2661784102890513,0.467694921344914,0.0958338483029965,-0.2645857721808617,-0.1287275923989047,0.3972610395640015,790.952380952381,794.5787545787546,794.5787545787546,781.2820512820513,768.3882783882784,658.7912087912088,-0.148376,-0.047119,0.9776,2.968292,1.128998,0.508423,1.0,1.0,1.0,1.0,1.0,75.0,,1637402255.77
0.3781010815485196,-0.2043028967802825,0.0214470406859564,0.3809735213974577,0.2103567363286576,-0.2645383278299145,-0.1473278315357012,0.2226592288163233,0.4608115306318434,0.3047128122385704,0.1671532303995698,0.5623978073270057,0.474999601492416,-0.0389626141431862,0.2661784102890513,0.467694921344914,0.0958338483029965,-0.2645857721808617,-0.1287275923989047,0.3972610395640015,793.7728937728938,799.4139194139194,786.9230769230769,792.5641025641025,872.7472527472528,677.3260073260074,-0.148376,-0.047119,0.9776,2.968292,1.128998,0.508423,1.0,1.0,1.0,1.0,1.0,75.0,,1637402255.771
0.3781010815485196,-0.2043028967802825,0.0214470406859564,0.3809735213974577,0.2103567363286576,-0.2645383278299145,-0.1473278315357012,0.2226592288163233,0.4608115306318434,0.3047128122385704,0.1671532303995698,0.5623978073270057,0.474999601492416,-0.0389626141431862,0.2661784102890513,0.467694921344914,0.0958338483029965,-0.2645857721808617,-0.1287275923989047,0.3972610395640015,788.5347985347986,802.2344322344322,784.1025641025641,787.3260073260074,909.0109890109892,843.3333333333334,-0.148376,-0.047119,0.9776,2.968292,1.128998,0.508423,1.0,1.0,1.0,1.0,1.0,75.0,,1637402255.771
0.3781010815485196,-0.2043028967802825,0.0214470406859564,0.3809735213974577,0.2103567363286576,-0.2645383278299145,-0.1473278315357012,0.2226592288163233,0.4608115306318434,0.3047128122385704,0.1671532303995698,0.5623978073270057,0.474999601492416,-0.0389626141431862,0.2661784102890513,0.467694921344914,0.0958338483029965,-0.2645857721808617,-0.1287275923989047,0.3972610395640015,785.3113553113553,799.8168498168499,786.1172161172161,795.3846153846154,823.992673992674,942.4542124542124,-0.148376,-0.047119,0.9776,2.968292,1.128998,0.508423,1.0,1.0,1.0,1.0,1.0,75.0,,1637402255.771
0.3781010815485196,-0.2043028967802825,0.0214470406859564,0.3809735213974577,0.2103567363286576,-0.2645383278299145,-0.1473278315357012,0.2226592288163233,0.4608115306318434,0.3047128122385704,0.1671532303995698,0.5623978073270057,0.474999601492416,-0.0389626141431862,0.2661784102890513,0.467694921344914,0.0958338483029965,-0.2645857721808617,-0.1287275923989047,0.3972610395640015,789.7435897435897,795.3846153846154,787.3260073260074,802.2344322344322,846.5567765567765,751.0622710622711,-0.147339,-0.058105,0.975342,2.616882,0.568237,0.306549,1.0,1.0,1.0,1.0,1.0,75.0,,1637402255.814
0.3781010815485196,-0.2043028967802825,0.0214470406859564,0.3809735213974577,0.2103567363286576,-0.2645383278299145,-0.1473278315357012,0.2226592288163233,0.4608115306318434,0.3047128122385704,0.1671532303995698,0.5623978073270057,0.474999601492416,-0.0389626141431862,0.2661784102890513,0.467694921344914,0.0958338483029965,-0.2645857721808617,-0.1287275923989047,0.3972610395640015,790.1465201465202,798.6080586080586,792.5641025641025,786.1172161172161,840.9157509157509,758.7179487179487,-0.147339,-0.058105,0.975342,2.616882,0.568237,0.306549,1.0,1.0,1.0,1.0,1.0,75.0,,1637402255.815
0.3781010815485196,-0.2043028967802825,0.0214470406859564,0.3809735213974577,0.2103567363286576,-0.2645383278299145,-0.1473278315357012,0.2226592288163233,0.4608115306318434,0.3047128122385704,0.1671532303995698,0.5623978073270057,0.474999601492416,-0.0389626141431862,0.2661784102890513,0.467694921344914,0.0958338483029965,-0.2645857721808617,-0.1287275923989047,0.3972610395640015,781.2820512820513,797.3992673992674,788.5347985347986,780.8791208791209,819.1575091575091,1017.399267399267,-0.147339,-0.058105,0.975342,2.616882,0.568237,0.306549,1.0,1.0,1.0,1.0,1.0,75.0,,1637402255.816
0.3781010815485196,-0.2043028967802825,0.0214470406859564,0.3809735213974577,0.2103567363286576,-0.2645383278299145,-0.1473278315357012,0.2226592288163233,0.4608115306318434,0.3047128122385704,0.1671532303995698,0.5623978073270057,0.474999601492416,-0.0389626141431862,0.2661784102890513,0.467694921344914,0.0958338483029965,-0.2645857721808617,-0.1287275923989047,0.3972610395640015,785.7142857142858,788.1318681318681,784.9084249084249,793.7728937728938,909.4139194139194,921.904761904762,-0.147339,-0.058105,0.975342,2.616882,0.568237,0.306549,1.0,1.0,1.0,1.0,1.0,75.0,,1637402255.816
0.3781010815485196,-0.2043028967802825,0.0214470406859564,0.3809735213974577,0.2103567363286576,-0.2645383278299145,-0.1473278315357012,0.2226592288163233,0.4608115306318434,0.3047128122385704,0.1671532303995698,0.5623978073270057,0.474999601492416,-0.0389626141431862,0.2661784102890513,0.467694921344914,0.0958338483029965,-0.2645857721808617,-0.1287275923989047,0.3972610395640015,795.3846153846154,789.7435897435897,789.7435897435897,803.8461538461539,944.4688644688644,765.1648351648352,-0.147339,-0.058105,0.975342,2.616882,0.568237,0.306549,1.0,1.0,1.0,1.0,1.0,75.0,,1637402255.816
0.3781010815485196,-0.2043028967802825,0.0214470406859564,0.3809735213974577,0.2103567363286576,-0.2645383278299145,-0.1473278315357012,0.2226592288163233,0.4608115306318434,0.3047128122385704,0.1671532303995698,0.5623978073270057,0.474999601492416,-0.0389626141431862,0.2661784102890513,0.467694921344914,0.0958338483029965,-0.2645857721808617,-0.1287275923989047,0.3972610395640015,794.5787545787546,796.1904761904763,788.5347985347986,800.6227106227107,761.1355311355312,752.6739926739926,-0.147339,-0.058105,0.975342,2.616882,0.568237,0.306549,1.0,1.0,1.0,1.0,1.0,75.0,,1637402255.817
0.3781010815485196,-0.2043028967802825,0.0214470406859564,0.3809735213974577,0.2103567363286576,-0.2645383278299145,-0.1473278315357012,0.2226592288163233,0.4608115306318434,0.3047128122385704,0.1671532303995698,0.5623978073270057,0.474999601492416,-0.0389626141431862,0.2661784102890513,0.467694921344914,0.0958338483029965,-0.2645857721808617,-0.1287275923989047,0.3972610395640015,793.7728937728938,794.1758241758242,796.996336996337,797.3992673992674,727.2893772893773,1068.168498168498,-0.147339,-0.058105,0.975342,2.616882,0.568237,0.306549,1.0,1.0,1.0,1.0,1.0,75.0,,1637402255.817
0.3781010815485196,-0.2043028967802825,0.0214470406859564,0.3809735213974577,0.2103567363286576,-0.2645383278299145,-0.1473278315357012,0.2226592288163233,0.4608115306318434,0.3047128122385704,0.1671532303995698,0.5623978073270057,0.474999601492416,-0.0389626141431862,0.2661784102890513,0.467694921344914,0.0958338483029965,-0.2645857721808617,-0.1287275923989047,0.3972610395640015,796.1904761904763,788.1318681318681,803.4432234432235,797.3992673992674,896.9230769230769,1008.131868131868,-0.147339,-0.058105,0.975342,2.616882,0.568237,0.306549,1.0,1.0,1.0,1.0,1.0,75.0,,1637402255.817
0.3781010815485196,-0.2043028967802825,0.0214470406859564,0.3809735213974577,0.2103567363286576,-0.2645383278299145,-0.1473278315357012,0.2226592288163233,0.4608115306318434,0.3047128122385704,0.1671532303995698,0.5623978073270057,0.474999601492416,-0.0389626141431862,0.2661784102890513,0.467694921344914,0.0958338483029965,-0.2645857721808617,-0.1287275923989047,0.3972610395640015,798.2051282051282,794.981684981685,805.054945054945,803.8461538461539,985.970695970696,818.7545787545788,-0.147339,-0.058105,0.975342,2.616882,0.568237,0.306549,1.0,1.0,1.0,1.0,1.0,75.0,,1637402255.818
0.3781010815485196,-0.2043028967802825,0.0214470406859564,0.3809735213974577,0.2103567363286576,-0.2645383278299145,-0.1473278315357012,0.2226592288163233,0.4608115306318434,0.3047128122385704,0.1671532303995698,0.5623978073270057,0.474999601492416,-0.0389626141431862,0.2661784102890513,0.467694921344914,0.0958338483029965,-0.2645857721808617,-0.1287275923989047,0.3972610395640015,794.1758241758242,802.6373626373627,804.6520146520147,802.6373626373627,989.5970695970695,782.893772893773,-0.147339,-0.058105,0.975342,2.616882,0.568237,0.306549,1.0,1.0,1.0,1.0,1.0,75.0,,1637402255.818
0.3781010815485196,-0.2043028967802825,0.0214470406859564,0.3809735213974577,0.2103567363286576,-0.2645383278299145,-0.1473278315357012,0.2226592288163233,0.4608115306318434,0.3047128122385704,0.1671532303995698,0.5623978073270057,0.474999601492416,-0.0389626141431862,0.2661784102890513,0.467694921344914,0.0958338483029965,-0.2645857721808617,-0.1287275923989047,0.3972610395640015,792.967032967033,801.025641025641,794.5787545787546,791.7582417582418,965.0183150183152,849.7802197802198,-0.147339,-0.058105,0.975342,2.616882,0.568237,0.306549,1.0,1.0,1.0,1.0,1.0,75.0,,1637402255.819
0.3781010815485196,-0.2043028967802825,0.0214470406859564,0.3809735213974577,0.2103567363286576,-0.2645383278299145,-0.1473278315357012,0.2226592288163233,0.4608115306318434,0.3047128122385704,0.1671532303995698,0.5623978073270057,0.474999601492416,-0.0389626141431862,0.2661784102890513,0.467694921344914,0.0958338483029965,-0.2645857721808617,-0.1287275923989047,0.3972610395640015,784.5054945054945,796.1904761904763,788.5347985347986,784.9084249084249,947.6923076923076,893.2967032967033,-0.147339,-0.058105,0.975342,2.616882,0.568237,0.306549,1.0,1.0,1.0,1.0,1.0,75.0,,1637402255.819
0.3781010815485196,-0.2043028967802825,0.0214470406859564,0.3809735213974577,0.2103567363286576,-0.2645383278299145,-0.1473278315357012,0.2226592288163233,0.4608115306318434,0.3047128122385704,0.1671532303995698,0.5623978073270057,0.474999601492416,-0.0389626141431862,0.2661784102890513,0.467694921344914,0.0958338483029965,-0.2645857721808617,-0.1287275923989047,0.3972610395640015,784.9084249084249,794.5787545787546,791.3553113553114,779.2673992673992,975.0915750915752,773.6263736263736,-0.142395,-0.053467,0.975403,3.633728,0.231781,1.42807,1.0,1.0,1.0,1.0,1.0,75.0,,1637402255.862
0.3781010815485196,-0.2043028967802825,0.0214470406859564,0.3809735213974577,0.2103567363286576,-0.2645383278299145,-0.1473278315357012,0.2226592288163233,0.4608115306318434,0.3047128122385704,0.1671532303995698,0.5623978073270057,0.474999601492416,-0.0389626141431862,0.2661784102890513,0.467694921344914,0.0958338483029965,-0.2645857721808617,-0.1287275923989047,0.3972610395640015,793.7728937728938,793.3699633699634,795.7875457875458,786.5201465201466,958.1684981684982,826.8131868131868,-0.142395,-0.053467,0.975403,3.633728,0.231781,1.42807,1.0,1.0,1.0,1.0,1.0,75.0,,1637402255.863
0.3781010815485196,-0.2043028967802825,0.0214470406859564,0.3809735213974577,0.2103567363286576,-0.2645383278299145,-0.1473278315357012,0.2226592288163233,0.4608115306318434,0.3047128122385704,0.1671532303995698,0.5623978073270057,0.474999601492416,-0.0389626141431862,0.2661784102890513,0.467694921344914,0.0958338483029965,-0.2645857721808617,-0.1287275923989047,0.3972610395640015,786.1172161172161,791.7582417582418,797.3992673992674,797.3992673992674,886.0439560439561,1000.879120879121,-0.142395,-0.053467,0.975403,3.633728,0.231781,1.42807,1.0,1.0,1.0,1.0,1.0,75.0,,1637402255.863
0.3781010815485196,-0.2043028967802825,0.0214470406859564,0.3809735213974577,0.2103567363286576,-0.2645383278299145,-0.1473278315357012,0.2226592288163233,0.4608115306318434,0.3047128122385704,0.1671532303995698,0.5623978073270057,0.474999601492416,-0.0389626141431862,0.2661784102890513,0.467694921344914,0.0958338483029965,-0.2645857721808617,-0.1287275923989047,0.3972610395640015,780.4761904761905,790.952380952381,796.5934065934066,790.5494505494506,860.6593406593407,846.5567765567765,-0.142395,-0.053467,0.975403,3.633728,0.231781,1.42807,1.0,1.0,1.0,1.0,1.0,75.0,,1637402255.863
0.3781010815485196,-0.2043028967802825,0.0214470406859564,0.3809735213974577,0.2103567363286576,-0.2645383278299145,-0.1473278315357012,0.2226592288163233,0.4608115306318434,0.3047128122385704,0.1671532303995698,0.5623978073270057,0.474999601492416,-0.0389626141431862,0.2661784102890513,0.467694921344914,0.0958338483029965,-0.2645857721808617,-0.1287275923989047,0.3972610395640015,784.1025641025641,793.3699633699634,798.6080586080586,787.7289377289378,867.5091575091575,704.3223443223443,-0.142395,-0.053467,0.975403,3.633728,0.231781,1.42807,1.0,1.0,1.0,1.0,1.0,75.0,,1637402255.864
0.372081529280965,-0.1108211641456019,-0.0172781634917493,0.3346314280262347,0.2153267961716379,-0.2011262561919779,-0.1542281407646329,0.2266596968213017,0.445898895253703,0.355065328127294,0.1687754412590483,0.5468632592577668,0.46662816269617,-0.0597598551083304,0.2650935687764618,0.4948737130333985,0.0784666745590779,-0.2842745172492643,-0.119236007978928,0.3917009032653899,792.1611721611722,798.2051282051282,797.8021978021978,792.967032967033,846.5567765567765,873.956043956044,-0.142395,-0.053467,0.975403,3.633728,0.231781,1.42807,1.0,1.0,1.0,1.0,1.0,75.0,,1637402255.864
0.372081529280965,-0.1108211641456019,-0.0172781634917493,0.3346314280262347,0.2153267961716379,-0.2011262561919779,-0.1542281407646329,0.2266596968213017,0.445898895253703,0.355065328127294,0.1687754412590483,0.5468632592577668,0.46662816269617,-0.0597598551083304,0.2650935687764618,0.4948737130333985,0.0784666745590779,-0.2842745172492643,-0.119236007978928,0.3917009032653899,797.8021978021978,800.2197802197802,795.7875457875458,797.8021978021978,796.1904761904763,1216.446886446887,-0.142395,-0.053467,0.975403,3.633728,0.231781,1.42807,1.0,1.0,1.0,1.0,1.0,75.0,,1637402255.865
0.372081529280965,-0.1108211641456019,-0.0172781634917493,0.3346314280262347,0.2153267961716379,-0.2011262561919779,-0.1542281407646329,0.2266596968213017,0.445898895253703,0.355065328127294,0.1687754412590483,0.5468632592577668,0.46662816269617,-0.0597598551083304,0.2650935687764618,0.4948737130333985,0.0784666745590779,-0.2842745172492643,-0.119236007978928,0.3917009032653899,799.4139194139194,794.5787545787546,791.7582417582418,801.4285714285714,754.2857142857143,956.5567765567766,-0.142395,-0.053467,0.975403,3.633728,0.231781,1.42807,1.0,1.0,1.0,1.0,1.0,75.0,,1637402255.865
0.372081529280965,-0.1108211641456019,-0.0172781634917493,0.3346314280262347,0.2153267961716379,-0.2011262561919779,-0.1542281407646329,0.2266596968213017,0.445898895253703,0.355065328127294,0.1687754412590483,0.5468632592577668,0.46662816269617,-0.0597598551083304,0.2650935687764618,0.4948737130333985,0.0784666745590779,-0.2842745172492643,-0.119236007978928,0.3917009032653899,801.4285714285714,795.7875457875458,788.5347985347986,807.0695970695971,767.5824175824176,603.5897435897436,-0.142395,-0.053467,0.975403,3.633728,0.231781,1.42807,1.0,1.0,1.0,1.0,1.0,75.0,,1637402255.866
0.372081529280965,-0.1108211641456019,-0.0172781634917493,0.3346314280262347,0.2153267961716379,-0.2011262561919779,-0.1542281407646329,0.2266596968213017,0.445898895253703,0.355065328127294,0.1687754412590483,0.5468632592577668,0.46662816269617,-0.0597598551083304,0.2650935687764618,0.4948737130333985,0.0784666745590779,-0.2842745172492643,-0.119236007978928,0.3917009032653899,796.996336996337,800.6227106227107,792.967032967033,809.0842490842491,827.2161172161173,608.4249084249085,-0.142395,-0.053467,0.975403,3.633728,0.231781,1.42807,1.0,1.0,1.0,1.0,1.0,75.0,,1637402255.866
0.372081529280965,-0.1108211641456019,-0.0172781634917493,0.3346314280262347,0.2153267961716379,-0.2011262561919779,-0.1542281407646329,0.2266596968213017,0.445898895253703,0.355065328127294,0.1687754412590483,0.5468632592577668,0.46662816269617,-0.0597598551083304,0.2650935687764618,0.4948737130333985,0.0784666745590779,-0.2842745172492643,-0.119236007978928,0.3917009032653899,794.5787545787546,799.8168498168499,797.8021978021978,798.2051282051282,813.1135531135532,732.5274725274726,-0.142395,-0.053467,0.975403,3.633728,0.231781,1.42807,1.0,1.0,1.0,1.0,1.0,75.0,,1637402255.867
0.372081529280965,-0.1108211641456019,-0.0172781634917493,0.3346314280262347,0.2153267961716379,-0.2011262561919779,-0.1542281407646329,0.2266596968213017,0.445898895253703,0.355065328127294,0.1687754412590483,0.5468632592577668,0.46662816269617,-0.0597598551083304,0.2650935687764618,0.4948737130333985,0.0784666745590779,-0.2842745172492643,-0.119236007978928,0.3917009032653899,801.8315018315019,803.4432234432235,794.981684981685,786.5201465201466,777.6556776556777,739.7802197802198,-0.142395,-0.053467,0.975403,3.633728,0.231781,1.42807,1.0,1.0,1.0,1.0,1.0,75.0,,1637402255.867
0.372081529280965,-0.1108211641456019,-0.0172781634917493,0.3346314280262347,0.2153267961716379,-0.2011262561919779,-0.1542281407646329,0.2266596968213017,0.445898895253703,0.355065328127294,0.1687754412590483,0.5468632592577668,0.46662816269617,-0.0597598551083304,0.2650935687764618,0.4948737130333985,0.0784666745590779,-0.2842745172492643,-0.119236007978928,0.3917009032653899,801.4285714285714,804.2490842490843,794.1758241758242,786.9230769230769,794.1758241758242,654.3589743589744,-0.142395,-0.053467,0.975403,3.633728,0.231781,1.42807,1.0,1.0,1.0,1.0,1.0,75.0,,1637402255.909
0.372081529280965,-0.1108211641456019,-0.0172781634917493,0.3346314280262347,0.2153267961716379,-0.2011262561919779,-0.1542281407646329,0.2266596968213017,0.445898895253703,0.355065328127294,0.1687754412590483,0.5468632592577668,0.46662816269617,-0.0597598551083304,0.2650935687764618,0.4948737130333985,0.0784666745590779,-0.2842745172492643,-0.119236007978928,0.3917009032653899,790.5494505494506,799.8168498168499,799.0109890109891,793.7728937728938,798.6080586080586,905.7875457875458,-0.142395,-0.053467,0.975403,3.633728,0.231781,1.42807,1.0,1.0,1.0,1.0,1.0,75.0,,1637402255.91
0.372081529280965,-0.1108211641456019,-0.0172781634917493,0.3346314280262347,0.2153267961716379,-0.2011262561919779,-0.1542281407646329,0.2266596968213017,0.445898895253703,0.355065328127294,0.1687754412590483,0.5468632592577668,0.46662816269617,-0.0597598551083304,0.2650935687764618,0.4948737130333985,0.0784666745590779,-0.2842745172492643,-0.119236007978928,0.3917009032653899,784.1025641025641,801.4285714285714,796.1904761904763,798.2051282051282,835.6776556776557,1039.96336996337,-0.142395,-0.053467,0.975403,3.633728,0.231781,1.42807,1.0,1.0,1.0,1.0,1.0,75.0,,1637402255.91
0.372081529280965,-0.1108211641456019,-0.0172781634917493,0.3346314280262347,0.2153267961716379,-0.2011262561919779,-0.1542281407646329,0.2266596968213017,0.445898895253703,0.355065328127294,0.1687754412590483,0.5468632592577668,0.46662816269617,-0.0597598551083304,0.2650935687764618,0.4948737130333985,0.0784666745590779,-0.2842745172492643,-0.119236007978928,0.3917009032653899,790.5494505494506,805.054945054945,794.1758241758242,803.040293040293,875.5677655677656,896.9230769230769,-0.142395,-0.053467,0.975403,3.633728,0.231781,1.42807,1.0,1.0,1.0,1.0,1.0,75.0,,1637402255.91
0.372081529280965,-0.1108211641456019,-0.0172781634917493,0.3346314280262347,0.2153267961716379,-0.2011262561919779,-0.1542281407646329,0.2266596968213017,0.445898895253703,0.355065328127294,0.1687754412590483,0.5468632592577668,0.46662816269617,-0.0597598551083304,0.2650935687764618,0.4948737130333985,0.0784666745590779,-0.2842745172492643,-0.119236007978928,0.3917009032653899,790.1465201465202,803.8461538461539,796.1904761904763,803.040293040293,785.7142857142858,870.7326007326008,-0.142395,-0.053467,0.975403,3.633728,0.231781,1.42807,1.0,1.0,1.0,1.0,1.0,75.0,,1637402255.911
0.372081529280965,-0.1108211641456019,-0.0172781634917493,0.3346314280262347,0.2153267961716379,-0.2011262561919779,-0.1542281407646329,0.2266596968213017,0.445898895253703,0.355065328127294,0.1687754412590483,0.5468632592577668,0.46662816269617,-0.0597598551083304,0.2650935687764618,0.4948737130333985,0.0784666745590779,-0.2842745172492643,-0.119236007978928,0.3917009032653899,785.3113553113553,801.025641025641,794.981684981685,802.6373626373627,697.4725274725275,922.3076923076924,-0.142395,-0.053467,0.975403,3.633728,0.231781,1.42807,1.0,1.0,1.0,1.0,1.0,75.0,,1637402255.911
0.372081529280965,-0.1108211641456019,-0.0172781634917493,0.3346314280262347,0.2153267961716379,-0.2011262561919779,-0.1542281407646329,0.2266596968213017,0.445898895253703,0.355065328127294,0.1687754412590483,0.5468632592577668,0.46662816269617,-0.0597598551083304,0.2650935687764618,0.4948737130333985,0.0784666745590779,-0.2842745172492643,-0.119236007978928,0.3917009032653899,786.1172161172161,799.4139194139194,790.1465201465202,795.3846153846154,727.6923076923077,1059.70695970696,-0.142395,-0.053467,0.975403,3.633728,0.231781,1.42807,1.0,1.0,1.0,1.0,1.0,75.0,,1637402255.911
0.372081529280965,-0.1108211641456019,-0.0172781634917493,0.3346314280262347,0.2153267961716379,-0.2011262561919779,-0.1542281407646329,0.2266596968213017,0.445898895253703,0.355065328127294,0.1687754412590483,0.5468632592577668,0.46662816269617,-0.0597598551083304,0.2650935687764618,0.4948737130333985,0.0784666745590779,-0.2842745172492643,-0.119236007978928,0.3917009032653899,786.5201465201466,795.3846153846154,789.3406593406594,790.5494505494506,754.6886446886447,793.7728937728938,-0.142395,-0.053467,0.975403,3.633728,0.231781,1.42807,1.0,1.0,1.0,1.0,1.0,75.0,,1637402255.912
0.372081529280965,-0.1108211641456019,-0.0172781634917493,0.3346314280262347,0.2153267961716379,-0.2011262561919779,-0.1542281407646329,0.2266596968213017,0.445898895253703,0.355065328127294,0.1687754412590483,0.5468632592577668,0.46662816269617,-0.0597598551083304,0.2650935687764618,0.4948737130333985,0.0784666745590779,-0.2842745172492643,-0.119236007978928,0.3917009032653899,793.7728937728938,796.996336996337,793.7728937728938,796.996336996337,796.1904761904763,580.2197802197802,-0.142395,-0.053467,0.975403,3.633728,0.231781,1.42807,1.0,1.0,1.0,1.0,1.0,75.0,,1637402255.912
0.372081529280965,-0.1108211641456019,-0.0172781634917493,0.3346314280262347,0.2153267961716379,-0.2011262561919779,-0.1542281407646329,0.2266596968213017,0.445898895253703,0.355065328127294,0.1687754412590483,0.5468632592577668,0.46662816269617,-0.0597598551083304,0.2650935687764618,0.4948737130333985,0.0784666745590779,-0.2842745172492643,-0.119236007978928,0.3917009032653899,802.6373626373627,797.3992673992674,794.1758241758242,801.4285714285714,799.0109890109891,549.1941391941392,-0.142395,-0.053467,0.975403,3.633728,0.231781,1.42807,1.0,1.0,1.0,1.0,1.0,75.0,,1637402255.913
0.372081529280965,-0.1108211641456019,-0.0172781634917493,0.3346314280262347,0.2153267961716379,-0.2011262561919779,-0.1542281407646329,0.2266596968213017,0.445898895253703,0.355065328127294,0.1687754412590483,0.5468632592577668,0.46662816269617,-0.0597598551083304,0.2650935687764618,0.4948737130333985,0.0784666745590779,-0.2842745172492643,-0.119236007978928,0.3917009032653899,794.5787545787546,796.996336996337,793.7728937728938,806.2637362637363,717.2161172161173,602.7838827838827,-0.142395,-0.053467,0.975403,3.633728,0.231781,1.42807,1.0,1.0,1.0,1.0,1.0,75.0,,1637402255.913
0.372081529280965,-0.1108211641456019,-0.0172781634917493,0.3346314280262347,0.2153267961716379,-0.2011262561919779,-0.1542281407646329,0.2266596968213017,0.445898895253703,0.355065328127294,0.1687754412590483,0.5468632592577668,0.46662816269617,-0.0597598551083304,0.2650935687764618,0.4948737130333985,0.0784666745590779,-0.2842745172492643,-0.119236007978928,0.3917009032653899,779.2673992673992,800.2197802197802,792.1611721611722,805.4578754578755,706.7399267399268,610.8424908424909,-0.142395,-0.053467,0.975403,3.633728,0.231781,1.42807,1.0,1.0,1.0,1.0,1.0,75.0,,1637402255.913
0.372081529280965,-0.1108211641456019,-0.0172781634917493,0.3346314280262347,0.2153267961716379,-0.2011262561919779,-0.1542281407646329,0.2266596968213017,0.445898895253703,0.355065328127294,0.1687754412590483,0.5468632592577668,0.46662816269617,-0.0597598551083304,0.2650935687764618,0.4948737130333985,0.0784666745590779,-0.2842745172492643,-0.119236007978928,0.3917009032653899,780.0732600732601,796.996336996337,790.952380952381,793.3699633699634,663.6263736263736,508.9010989010989,-0.139343,-0.052551,0.97876,3.783264,0.059814,1.77948,1.0,1.0,1.0,1.0,1.0,75.0,,1637402255.957
0.372081529280965,-0.1108211641456019,-0.0172781634917493,0.3346314280262347,0.2153267961716379,-0.2011262561919779,-0.1542281407646329,0.2266596968213017,0.445898895253703,0.355065328127294,0.1687754412590483,0.5468632592577668,0.46662816269617,-0.0597598551083304,0.2650935687764618,0.4948737130333985,0.0784666745590779,-0.2842745172492643,-0.119236007978928,0.3917009032653899,790.1465201465202,796.996336996337,789.7435897435897,791.3553113553114,612.0512820512821,443.6263736263737,-0.139343,-0.052551,0.97876,3.783264,0.059814,1.77948,1.0,1.0,1.0,1.0,1.0,75.0,,1637402255.957
0.372081529280965,-0.1108211641456019,-0.0172781634917493,0.3346314280262347,0.2153267961716379,-0.2011262561919779,-0.1542281407646329,0.2266596968213017,0.445898895253703,0.355065328127294,0.1687754412590483,0.5468632592577668,0.46662816269617,-0.0597598551083304,0.2650935687764618,0.4948737130333985,0.0784666745590779,-0.2842745172492643,-0.119236007978928,0.3917009032653899,791.3553113553114,801.8315018315019,793.7728937728938,789.3406593406594,652.7472527472528,578.6080586080586,-0.139343,-0.052551,0.97876,3.783264,0.059814,1.77948,1.0,1.0,1.0,1.0,1.0,75.0,,1637402255.958
0.372081529280965,-0.1108211641456019,-0.0172781634917493,0.3346314280262347,0.2153267961716379,-0.2011262561919779,-0.1542281407646329,0.2266596968213017,0.445898895253703,0.355065328127294,0.1687754412590483,0.5468632592577668,0.46662816269617,-0.0597598551083304,0.2650935687764618,0.4948737130333985,0.0784666745590779,-0.2842745172492643,-0.119236007978928,0.3917009032653899,777.2527472527473,798.2051282051282,794.1758241758242,780.8791208791209,711.5750915750916,659.1941391941392,-0.139343,-0.052551,0.97876,3.783264,0.059814,1.77948,1.0,1.0,1.0,1.0,1.0,75.0,,1637402255.958
0.372081529280965,-0.1108211641456019,-0.0172781634917493,0.3346314280262347,0.2153267961716379,-0.2011262561919779,-0.1542281407646329,0.2266596968213017,0.445898895253703,0.355065328127294,0.1687754412590483,0.5468632592577668,0.46662816269617,-0.0597598551083304,0.2650935687764618,0.4948737130333985,0.0784666745590779,-0.2842745172492643,-0.119236007978928,0.3917009032653899,764.7619047619048,792.967032967033,788.1318681318681,785.3113553113553,730.1098901098901,623.3333333333334,-0.139343,-0.052551,0.97876,3.783264,0.059814,1.77948,1.0,1.0,1.0,1.0,1.0,75.0,,1637402255.958
0.372081529280965,-0.1108211641456019,-0.0172781634917493,0.3346314280262347,0.2153267961716379,-0.2011262561919779,-0.1542281407646329,0.2266596968213017,0.445898895253703,0.355065328127294,0.1687754412590483,0.5468632592577668,0.46662816269617,-0.0597598551083304,0.2650935687764618,0.4948737130333985,0.0784666745590779,-0.2842745172492643,-0.119236007978928,0.3917009032653899,774.4322344322345,791.7582417582418,787.3260073260074,786.9230769230769,715.6043956043957,786.9230769230769,-0.139343,-0.052551,0.97876,3.783264,0.059814,1.77948,1.0,1.0,1.0,1.0,1.0,75.0,,1637402255.959
0.372081529280965,-0.1108211641456019,-0.0172781634917493,0.3346314280262347,0.2153267961716379,-0.2011262561919779,-0.1542281407646329,0.2266596968213017,0.445898895253703,0.355065328127294,0.1687754412590483,0.5468632592577668,0.46662816269617,-0.0597598551083304,0.2650935687764618,0.4948737130333985,0.0784666745590779,-0.2842745172492643,-0.119236007978928,0.3917009032653899,782.4908424908425,790.952380952381,792.1611721611722,792.1611721611722,703.1135531135532,983.1501831501832,-0.139343,-0.052551,0.97876,3.783264,0.059814,1.77948,1.0,1.0,1.0,1.0,1.0,75.0,,1637402255.959
0.3785118194538867,-0.0238780004407412,-0.0182784619503282,0.325465881224041,0.2257895292173655,-0.1238292966881295,-0.1535724661049724,0.2294131782515369,0.4461543881123854,0.3494669160649295,0.1890273494779674,0.5414764735827314,0.4599573188036258,-0.0798741766769716,0.2717228307593182,0.523424665634976,0.0633381499773075,-0.2992522225018726,-0.1079927104783491,0.3884970541747778,785.3113553113553,795.3846153846154,799.0109890109891,798.2051282051282,719.6336996336996,1073.406593406593,-0.139343,-0.052551,0.97876,3.783264,0.059814,1.77948,1.0,1.0,1.0,1.0,1.0,75.0,,1637402255.959
0.3785118194538867,-0.0238780004407412,-0.0182784619503282,0.325465881224041,0.2257895292173655,-0.1238292966881295,-0.1535724661049724,0.2294131782515369,0.4461543881123854,0.3494669160649295,0.1890273494779674,0.5414764735827314,0.4599573188036258,-0.0798741766769716,0.2717228307593182,0.523424665634976,0.0633381499773075,-0.2992522225018726,-0.1079927104783491,0.3884970541747778,788.5347985347986,797.3992673992674,796.1904761904763,792.967032967033,834.4688644688645,1056.080586080586,-0.139343,-0.052551,0.97876,3.783264,0.059814,1.77948,1.0,1.0,1.0,1.0,1.0,75.0,,1637402255.96
0.3785118194538867,-0.0238780004407412,-0.0182784619503282,0.325465881224041,0.2257895292173655,-0.1238292966881295,-0.1535724661049724,0.2294131782515369,0.4461543881123854,0.3494669160649295,0.1890273494779674,0.5414764735827314,0.4599573188036258,-0.0798741766769716,0.2717228307593182,0.523424665634976,0.0633381499773075,-0.2992522225018726,-0.1079927104783491,0.3884970541747778,788.5347985347986,798.6080586080586,792.967032967033,793.3699633699634,894.1025641025641,837.2893772893773,-0.139343,-0.052551,0.97876,3.783264,0.059814,1.77948,1.0,1.0,1.0,1.0,1.0,75.0,,1637402255.961
0.3785118194538867,-0.0238780004407412,-0.0182784619503282,0.325465881224041,0.2257895292173655,-0.1238292966881295,-0.1535724661049724,0.2294131782515369,0.4461543881123854,0.3494669160649295,0.1890273494779674,0.5414764735827314,0.4599573188036258,-0.0798741766769716,0.2717228307593182,0.523424665634976,0.0633381499773075,-0.2992522225018726,-0.1079927104783491,0.3884970541747778,786.9230769230769,806.2637362637363,793.7728937728938,796.1904761904763,857.8388278388279,739.3772893772893,-0.139343,-0.052551,0.97876,3.783264,0.059814,1.77948,1.0,1.0,1.0,1.0,1.0,75.0,,1637402255.961
0.3785118194538867,-0.0238780004407412,-0.0182784619503282,0.325465881224041,0.2257895292173655,-0.1238292966881295,-0.1535724661049724,0.2294131782515369,0.4461543881123854,0.3494669160649295,0.1890273494779674,0.5414764735827314,0.4599573188036258,-0.0798741766769716,0.2717228307593182,0.523424665634976,0.0633381499773075,-0.2992522225018726,-0.1079927104783491,0.3884970541747778,790.952380952381,806.2637362637363,796.5934065934066,795.7875457875458,822.3809523809524,711.1721611721612,-0.139343,-0.052551,0.97876,3.783264,0.059814,1.77948,1.0,1.0,1.0,1.0,1.0,75.0,,1637402255.962
0.3785118194538867,-0.0238780004407412,-0.0182784619503282,0.325465881224041,0.2257895292173655,-0.1238292966881295,-0.1535724661049724,0.2294131782515369,0.4461543881123854,0.3494669160649295,0.1890273494779674,0.5414764735827314,0.4599573188036258,-0.0798741766769716,0.2717228307593182,0.523424665634976,0.0633381499773075,-0.2992522225018726,-0.1079927104783491,0.3884970541747778,799.4139194139194,801.8315018315019,802.2344322344322,791.7582417582418,867.9120879120879,687.8021978021978,-0.140503,-0.042664,0.984985,4.149628,0.53833,2.893524,1.0,1.0,1.0,1.0,1.0,75.0,,1637402256.004
0.3785118194538867,-0.0238780004407412,-0.0182784619503282,0.325465881224041,0.2257895292173655,-0.1238292966881295,-0.1535724661049724,0.2294131782515369,0.4461543881123854,0.3494669160649295,0.1890273494779674,0.5414764735827314,0.4599573188036258,-0.0798741766769716,0.2717228307593182,0.523424665634976,0.0633381499773075,-0.2992522225018726,-0.1079927104783491,0.3884970541747778,805.8608058608058,803.040293040293,805.8608058608058,793.3699633699634,884.8351648351648,1034.725274725275,-0.140503,-0.042664,0.984985,4.149628,0.53833,2.893524,1.0,1.0,1.0,1.0,1.0,75.0,,1637402256.005
0.3785118194538867,-0.0238780004407412,-0.0182784619503282,0.325465881224041,0.2257895292173655,-0.1238292966881295,-0.1535724661049724,0.2294131782515369,0.4461543881123854,0.3494669160649295,0.1890273494779674,0.5414764735827314,0.4599573188036258,-0.0798741766769716,0.2717228307593182,0.523424665634976,0.0633381499773075,-0.2992522225018726,-0.1079927104783491,0.3884970541747778,796.996336996337,803.8461538461539,800.2197802197802,792.5641025641025,826.8131868131868,1046.813186813187,-0.140503,-0.042664,0.984985,4.149628,0.53833,2.893524,1.0,1.0,1.0,1.0,1.0,75.0,,1637402256.005
0.3785118194538867,-0.0238780004407412,-0.0182784619503282,0.325465881224041,0.2257895292173655,-0.1238292966881295,-0.1535724661049724,0.2294131782515369,0.4461543881123854,0.3494669160649295,0.1890273494779674,0.5414764735827314,0.4599573188036258,-0.0798741766769716,0.2717228307593182,0.523424665634976,0.0633381499773075,-0.2992522225018726,-0.1079927104783491,0.3884970541747778,787.7289377289378,800.6227106227107,795.3846153846154,791.3553113553114,783.2967032967033,707.1428571428571,-0.140503,-0.042664,0.984985,4.149628,0.53833,2.893524,1.0,1.0,1.0,1.0,1.0,75.0,,1637402256.005
0.3785118194538867,-0.0238780004407412,-0.0182784619503282,0.325465881224041,0.2257895292173655,-0.1238292966881295,-0.1535724661049724,0.2294131782515369,0.4461543881123854,0.3494669160649295,0.1890273494779674,0.5414764735827314,0.4599573188036258,-0.0798741766769716,0.2717228307593182,0.523424665634976,0.0633381499773075,-0.2992522225018726,-0.1079927104783491,0.3884970541747778,787.7289377289378,794.981684981685,793.7728937728938,788.9377289377289,790.952380952381,619.7069597069598,-0.140503,-0.042664,0.984985,4.149628,0.53833,2.893524,1.0,1.0,1.0,1.0,1.0,75.0,,1637402256.006
0.3785118194538867,-0.0238780004407412,-0.0182784619503282,0.325465881224041,0.2257895292173655,-0.1238292966881295,-0.1535724661049724,0.2294131782515369,0.4461543881123854,0.3494669160649295,0.1890273494779674,0.5414764735827314,0.4599573188036258,-0.0798741766769716,0.2717228307593182,0.523424665634976,0.0633381499773075,-0.2992522225018726,-0.1079927104783491,0.3884970541747778,786.9230769230769,796.5934065934066,794.5787545787546,789.7435897435897,807.8754578754579,772.014652014652,-0.140503,-0.042664,0.984985,4.149628,0.53833,2.893524,1.0,1.0,1.0,1.0,1.0,75.0,,1637402256.006
0.3785118194538867,-0.0238780004407412,-0.0182784619503282,0.325465881224041,0.2257895292173655,-0.1238292966881295,-0.1535724661049724,0.2294131782515369,0.4461543881123854,0.3494669160649295,0.1890273494779674,0.5414764735827314,0.4599573188036258,-0.0798741766769716,0.2717228307593182,0.523424665634976,0.0633381499773075,-0.2992522225018726,-0.1079927104783491,0.3884970541747778,788.1318681318681,801.4285714285714,795.7875457875458,801.025641025641,713.5897435897436,1045.604395604396,-0.140503,-0.042664,0.984985,4.149628,0.53833,2.893524,1.0,1.0,1.0,1.0,1.0,75.0,,1637402256.007
0.3785118194538867,-0.0238780004407412,-0.0182784619503282,0.325465881224041,0.2257895292173655,-0.1238292966881295,-0.1535724661049724,0.2294131782515369,0.4461543881123854,0.3494669160649295,0.1890273494779674,0.5414764735827314,0.4599573188036258,-0.0798741766769716,0.2717228307593182,0.523424665634976,0.0633381499773075,-0.2992522225018726,-0.1079927104783491,0.3884970541747778,795.3846153846154,804.6520146520147,786.1172161172161,792.5641025641025,693.040293040293,827.2161172161173,-0.140503,-0.042664,0.984985,4.149628,0.53833,2.893524,1.0,1.0,1.0,1.0,1.0,75.0,,1637402256.007
0.3785118194538867,-0.0238780004407412,-0.0182784619503282,0.325465881224041,0.2257895292173655,-0.1238292966881295,-0.1535724661049724,0.2294131782515369,0.4461543881123854,0.3494669160649295,0.1890273494779674,0.5414764735827314,0.4599573188036258,-0.0798741766769716,0.2717228307593182,0.523424665634976,0.0633381499773075,-0.2992522225018726,-0.1079927104783491,0.3884970541747778,795.7875457875458,801.025641025641,785.7142857142858,778.0586080586081,744.6153846153846,835.2747252747253,-0.140503,-0.042664,0.984985,4.149628,0.53833,2.893524,1.0,1.0,1.0,1.0,1.0,75.0,,1637402256.007
0.3785118194538867,-0.0238780004407412,-0.0182784619503282,0.325465881224041,0.2257895292173655,-0.1238292966881295,-0.1535724661049724,0.2294131782515369,0.4461543881123854,0.3494669160649295,0.1890273494779674,0.5414764735827314,0.4599573188036258,-0.0798741766769716,0.2717228307593182,0.523424665634976,0.0633381499773075,-0.2992522225018726,-0.1079927104783491,0.3884970541747778,790.952380952381,796.1904761904763,793.3699633699634,773.2234432234433,718.8278388278388,841.3186813186813,-0.140503,-0.042664,0.984985,4.149628,0.53833,2.893524,1.0,1.0,1.0,1.0,1.0,75.0,,1637402256.008
0.3785118194538867,-0.0238780004407412,-0.0182784619503282,0.325465881224041,0.2257895292173655,-0.1238292966881295,-0.1535724661049724,0.2294131782515369,0.4461543881123854,0.3494669160649295,0.1890273494779674,0.5414764735827314,0.4599573188036258,-0.0798741766769716,0.2717228307593182,0.523424665634976,0.0633381499773075,-0.2992522225018726,-0.1079927104783491,0.3884970541747778,804.6520146520147,802.2344322344322,794.981684981685,776.4468864468864,761.941391941392,653.956043956044,-0.140503,-0.042664,0.984985,4.149628,0.53833,2.893524,1.0,1.0,1.0,1.0,1.0,75.0,,1637402256.008
