Delta_TP9,Delta_AF7,Delta_AF8,Delta_TP10,Theta_TP9,Theta_AF7,Theta_AF8,Theta_TP10,Alpha_TP9,Alpha_AF7,Alpha_AF8,Alpha_TP10,Beta_TP9,Beta_AF7,Beta_AF8,Beta_TP10,Gamma_TP9,Gamma_AF7,Gamma_AF8,Gamma_TP10,RAW_TP9,RAW_AF7,RAW_AF8,RAW_TP10,AUX_RIGHT,AUX_LEFT,Accelerometer_X,Accelerometer_Y,Accelerometer_Z,Gyro_X,Gyro_Y,Gyro_Z,HeadBandOn,HSI_TP9,HSI_AF7,HSI_AF8,HSI_TP10,Battery,Elements,time
0.4750636656839484,-0.3201316031636145,-0.4332407671377732,0.5583315016753471,-0.0448165238356084,-0.2151676684290255,-0.1880973884959788,0.1674316949754528,0.3304252263282835,-0.0562510303362953,-0.0209419679621861,0.3487397882391765,0.3528316421651738,0.0524233079370808,0.1685744840757422,0.4588348355409065,-0.03439258896101,-0.235157170742547,-0.1308551090539519,0.1956188239446208,794.1758241758242,801.8315018315019,786.5201465201466,784.5054945054945,844.1391941391942,655.9706959706959,-0.091675,0.054382,1.003113,-1.809387,-2.601929,10.123596,1.0,1.0,1.0,1.0,1.0,70.0,,1721467270.837
0.4750636656839484,-0.3201316031636145,-0.4332407671377732,0.5583315016753471,-0.0448165238356084,-0.2151676684290255,-0.1880973884959788,0.1674316949754528,0.3304252263282835,-0.0562510303362953,-0.0209419679621861,0.3487397882391765,0.3528316421651738,0.0524233079370808,0.1685744840757422,0.4588348355409065,-0.03439258896101,-0.235157170742547,-0.1308551090539519,0.1956188239446208,796.996336996337,798.6080586080586,786.9230769230769,781.6849816849817,814.3223443223443,920.2930402930403,-0.091675,0.054382,1.003113,-1.809387,-2.601929,10.123596,1.0,1.0,1.0,1.0,1.0,70.0,,1721467270.837
0.4750636656839484,-0.3201316031636145,-0.4332407671377732,0.5583315016753471,-0.0448165238356084,-0.2151676684290255,-0.1880973884959788,0.1674316949754528,0.3304252263282835,-0.0562510303362953,-0.0209419679621861,0.3487397882391765,0.3528316421651738,0.0524233079370808,0.1685744840757422,0.4588348355409065,-0.03439258896101,-0.235157170742547,-0.1308551090539519,0.1956188239446208,795.3846153846154,799.0109890109891,780.8791208791209,782.4908424908425,832.4542124542124,887.6556776556777,-0.091675,0.054382,1.003113,-1.809387,-2.601929,10.123596,1.0,1.0,1.0,1.0,1.0,70.0,,1721467270.838
0.4750636656839484,-0.3201316031636145,-0.4332407671377732,0.5583315016753471,-0.0448165238356084,-0.2151676684290255,-0.1880973884959788,0.1674316949754528,0.3304252263282835,-0.0562510303362953,-0.0209419679621861,0.3487397882391765,0.3528316421651738,0.0524233079370808,0.1685744840757422,0.4588348355409065,-0.03439258896101,-0.235157170742547,-0.1308551090539519,0.1956188239446208,789.3406593406594,796.1904761904763,778.0586080586081,777.6556776556777,813.5164835164835,690.2197802197802,-0.091675,0.054382,1.003113,-1.809387,-2.601929,10.123596,1.0,1.0,1.0,1.0,1.0,70.0,,1721467270.838
0.4750636656839484,-0.3201316031636145,-0.4332407671377732,0.5583315016753471,-0.0448165238356084,-0.2151676684290255,-0.1880973884959788,0.1674316949754528,0.3304252263282835,-0.0562510303362953,-0.0209419679621861,0.3487397882391765,0.3528316421651738,0.0524233079370808,0.1685744840757422,0.4588348355409065,-0.03439258896101,-0.235157170742547,-0.1308551090539519,0.1956188239446208,788.9377289377289,794.981684981685,784.9084249084249,782.893772893773,841.7216117216118,591.5018315018315,-0.091675,0.054382,1.003113,-1.809387,-2.601929,10.123596,1.0,1.0,1.0,1.0,1.0,70.0,,1721467270.838
0.4750636656839484,-0.3201316031636145,-0.4332407671377732,0.5583315016753471,-0.0448165238356084,-0.2151676684290255,-0.1880973884959788,0.1674316949754528,0.3304252263282835,-0.0562510303362953,-0.0209419679621861,0.3487397882391765,0.3528316421651738,0.0524233079370808,0.1685744840757422,0.4588348355409065,-0.03439258896101,-0.235157170742547,-0.1308551090539519,0.1956188239446208,786.5201465201466,799.8168498168499,788.9377289377289,792.5641025641025,896.9230769230769,954.5421245421246,-0.091675,0.054382,1.003113,-1.809387,-2.601929,10.123596,1.0,1.0,1.0,1.0,1.0,70.0,,1721467270.838
0.4750636656839484,-0.3201316031636145,-0.4332407671377732,0.5583315016753471,-0.0448165238356084,-0.2151676684290255,-0.1880973884959788,0.1674316949754528,0.3304252263282835,-0.0562510303362953,-0.0209419679621861,0.3487397882391765,0.3528316421651738,0.0524233079370808,0.1685744840757422,0.4588348355409065,-0.03439258896101,-0.235157170742547,-0.1308551090539519,0.1956188239446208,787.3260073260074,802.2344322344322,791.7582417582418,795.3846153846154,913.4432234432236,1292.197802197802,-0.091675,0.054382,1.003113,-1.809387,-2.601929,10.123596,1.0,1.0,1.0,1.0,1.0,70.0,,1721467270.839
0.4750636656839484,-0.3201316031636145,-0.4332407671377732,0.5583315016753471,-0.0448165238356084,-0.2151676684290255,-0.1880973884959788,0.1674316949754528,0.3304252263282835,-0.0562510303362953,-0.0209419679621861,0.3487397882391765,0.3528316421651738,0.0524233079370808,0.1685744840757422,0.4588348355409065,-0.03439258896101,-0.235157170742547,-0.1308551090539519,0.1956188239446208,787.7289377289378,795.3846153846154,782.893772893773,798.6080586080586,813.1135531135532,910.6227106227108,-0.091675,0.054382,1.003113,-1.809387,-2.601929,10.123596,1.0,1.0,1.0,1.0,1.0,70.0,,1721467270.839
0.4750636656839484,-0.3201316031636145,-0.4332407671377732,0.5583315016753471,-0.0448165238356084,-0.2151676684290255,-0.1880973884959788,0.1674316949754528,0.3304252263282835,-0.0562510303362953,-0.0209419679621861,0.3487397882391765,0.3528316421651738,0.0524233079370808,0.1685744840757422,0.4588348355409065,-0.03439258896101,-0.235157170742547,-0.1308551090539519,0.1956188239446208,784.1025641025641,789.3406593406594,782.0879120879121,787.7289377289378,807.4725274725275,614.8717948717949,-0.091675,0.054382,1.003113,-1.809387,-2.601929,10.123596,1.0,1.0,1.0,1.0,1.0,70.0,,1721467270.839
0.4750636656839484,-0.3201316031636145,-0.4332407671377732,0.5583315016753471,-0.0448165238356084,-0.2151676684290255,-0.1880973884959788,0.1674316949754528,0.3304252263282835,-0.0562510303362953,-0.0209419679621861,0.3487397882391765,0.3528316421651738,0.0524233079370808,0.1685744840757422,0.4588348355409065,-0.03439258896101,-0.235157170742547,-0.1308551090539519,0.1956188239446208,786.9230769230769,790.1465201465202,787.3260073260074,783.6996336996338,871.1355311355312,724.0659340659341,-0.091675,0.054382,1.003113,-1.809387,-2.601929,10.123596,1.0,1.0,1.0,1.0,1.0,70.0,,1721467270.84
0.4750636656839484,-0.3201316031636145,-0.4332407671377732,0.5583315016753471,-0.0448165238356084,-0.2151676684290255,-0.1880973884959788,0.1674316949754528,0.3304252263282835,-0.0562510303362953,-0.0209419679621861,0.3487397882391765,0.3528316421651738,0.0524233079370808,0.1685744840757422,0.4588348355409065,-0.03439258896101,-0.235157170742547,-0.1308551090539519,0.1956188239446208,787.3260073260074,790.952380952381,786.1172161172161,789.7435897435897,796.5934065934066,701.9047619047619,-0.091675,0.054382,1.003113,-1.809387,-2.601929,10.123596,1.0,1.0,1.0,1.0,1.0,70.0,,1721467270.84
0.4750636656839484,-0.3201316031636145,-0.4332407671377732,0.5583315016753471,-0.0448165238356084,-0.2151676684290255,-0.1880973884959788,0.1674316949754528,0.3304252263282835,-0.0562510303362953,-0.0209419679621861,0.3487397882391765,0.3528316421651738,0.0524233079370808,0.1685744840757422,0.4588348355409065,-0.03439258896101,-0.235157170742547,-0.1308551090539519,0.1956188239446208,786.9230769230769,791.7582417582418,792.967032967033,797.8021978021978,782.893772893773,690.2197802197802,-0.091675,0.054382,1.003113,-1.809387,-2.601929,10.123596,1.0,1.0,1.0,1.0,1.0,70.0,,1721467270.84
0.4750636656839484,-0.3201316031636145,-0.4332407671377732,0.5583315016753471,-0.0448165238356084,-0.2151676684290255,-0.1880973884959788,0.1674316949754528,0.3304252263282835,-0.0562510303362953,-0.0209419679621861,0.3487397882391765,0.3528316421651738,0.0524233079370808,0.1685744840757422,0.4588348355409065,-0.03439258896101,-0.235157170742547,-0.1308551090539519,0.1956188239446208,786.9230769230769,790.5494505494506,793.7728937728938,790.5494505494506,757.5091575091575,826.8131868131868,-0.101013,0.056091,0.994202,0.485992,1.420593,6.893616,1.0,1.0,1.0,1.0,1.0,70.0,,1721467270.884
0.4750636656839484,-0.3201316031636145,-0.4332407671377732,0.5583315016753471,-0.0448165238356084,-0.2151676684290255,-0.1880973884959788,0.1674316949754528,0.3304252263282835,-0.0562510303362953,-0.0209419679621861,0.3487397882391765,0.3528316421651738,0.0524233079370808,0.1685744840757422,0.4588348355409065,-0.03439258896101,-0.235157170742547,-0.1308551090539519,0.1956188239446208,786.9230769230769,792.1611721611722,791.7582417582418,779.2673992673992,718.021978021978,765.5677655677656,-0.101013,0.056091,0.994202,0.485992,1.420593,6.893616,1.0,1.0,1.0,1.0,1.0,70.0,,1721467270.884
0.4750636656839484,-0.3201316031636145,-0.4332407671377732,0.5583315016753471,-0.0448165238356084,-0.2151676684290255,-0.1880973884959788,0.1674316949754528,0.3304252263282835,-0.0562510303362953,-0.0209419679621861,0.3487397882391765,0.3528316421651738,0.0524233079370808,0.1685744840757422,0.4588348355409065,-0.03439258896101,-0.235157170742547,-0.1308551090539519,0.1956188239446208,792.967032967033,796.5934065934066,790.5494505494506,784.9084249084249,715.6043956043957,639.8534798534798,-0.101013,0.056091,0.994202,0.485992,1.420593,6.893616,1.0,1.0,1.0,1.0,1.0,70.0,,1721467270.885
0.4750636656839484,-0.3201316031636145,-0.4332407671377732,0.5583315016753471,-0.0448165238356084,-0.2151676684290255,-0.1880973884959788,0.1674316949754528,0.3304252263282835,-0.0562510303362953,-0.0209419679621861,0.3487397882391765,0.3528316421651738,0.0524233079370808,0.1685744840757422,0.4588348355409065,-0.03439258896101,-0.235157170742547,-0.1308551090539519,0.1956188239446208,791.7582417582418,795.7875457875458,791.7582417582418,789.3406593406594,762.7472527472528,680.5494505494506,-0.101013,0.056091,0.994202,0.485992,1.420593,6.893616,1.0,1.0,1.0,1.0,1.0,70.0,,1721467270.885
0.4750636656839484,-0.3201316031636145,-0.4332407671377732,0.5583315016753471,-0.0448165238356084,-0.2151676684290255,-0.1880973884959788,0.1674316949754528,0.3304252263282835,-0.0562510303362953,-0.0209419679621861,0.3487397882391765,0.3528316421651738,0.0524233079370808,0.1685744840757422,0.4588348355409065,-0.03439258896101,-0.235157170742547,-0.1308551090539519,0.1956188239446208,781.6849816849817,794.5787545787546,793.7728937728938,784.5054945054945,744.2124542124542,493.5897435897436,-0.101013,0.056091,0.994202,0.485992,1.420593,6.893616,1.0,1.0,1.0,1.0,1.0,70.0,,1721467270.885
0.508203855449546,-0.296156597550482,-0.4587160566280298,0.5654820052114969,-0.0324869721920081,-0.181094956029294,-0.1856495209488039,0.1450976531242231,0.3304252263282835,-0.0404923013651512,-0.0040722607284149,0.3417344663499279,0.3327812407991436,0.0523554689018839,0.1668122950187863,0.4471923233458223,-0.0178746044108658,-0.2664717122063217,-0.1169930381925475,0.1880898904573557,778.0586080586081,798.2051282051282,791.3553113553114,786.1172161172161,712.3809523809524,771.6117216117216,-0.101013,0.056091,0.994202,0.485992,1.420593,6.893616,1.0,1.0,1.0,1.0,1.0,70.0,,1721467270.886
0.508203855449546,-0.296156597550482,-0.4587160566280298,0.5654820052114969,-0.0324869721920081,-0.181094956029294,-0.1856495209488039,0.1450976531242231,0.3304252263282835,-0.0404923013651512,-0.0040722607284149,0.3417344663499279,0.3327812407991436,0.0523554689018839,0.1668122950187863,0.4471923233458223,-0.0178746044108658,-0.2664717122063217,-0.1169930381925475,0.1880898904573557,782.0879120879121,797.3992673992674,787.7289377289378,790.5494505494506,761.1355311355312,1165.274725274725,-0.101013,0.056091,0.994202,0.485992,1.420593,6.893616,1.0,1.0,1.0,1.0,1.0,70.0,,1721467270.886
0.508203855449546,-0.296156597550482,-0.4587160566280298,0.5654820052114969,-0.0324869721920081,-0.181094956029294,-0.1856495209488039,0.1450976531242231,0.3304252263282835,-0.0404923013651512,-0.0040722607284149,0.3417344663499279,0.3327812407991436,0.0523554689018839,0.1668122950187863,0.4471923233458223,-0.0178746044108658,-0.2664717122063217,-0.1169930381925475,0.1880898904573557,788.1318681318681,790.1465201465202,783.6996336996338,789.3406593406594,716.4102564102565,822.3809523809524,-0.101013,0.056091,0.994202,0.485992,1.420593,6.893616,1.0,1.0,1.0,1.0,1.0,70.0,,1721467270.887
0.508203855449546,-0.296156597550482,-0.4587160566280298,0.5654820052114969,-0.0324869721920081,-0.181094956029294,-0.1856495209488039,0.1450976531242231,0.3304252263282835,-0.0404923013651512,-0.0040722607284149,0.3417344663499279,0.3327812407991436,0.0523554689018839,0.1668122950187863,0.4471923233458223,-0.0178746044108658,-0.2664717122063217,-0.1169930381925475,0.1880898904573557,794.1758241758242,790.1465201465202,787.3260073260074,784.1025641025641,794.5787545787546,589.0842490842491,-0.101013,0.056091,0.994202,0.485992,1.420593,6.893616,1.0,1.0,1.0,1.0,1.0,70.0,,1721467270.887
0.508203855449546,-0.296156597550482,-0.4587160566280298,0.5654820052114969,-0.0324869721920081,-0.181094956029294,-0.1856495209488039,0.1450976531242231,0.3304252263282835,-0.0404923013651512,-0.0040722607284149,0.3417344663499279,0.3327812407991436,0.0523554689018839,0.1668122950187863,0.4471923233458223,-0.0178746044108658,-0.2664717122063217,-0.1169930381925475,0.1880898904573557,794.5787545787546,795.3846153846154,794.5787545787546,779.6703296703297,881.6117216117217,738.974358974359,-0.101013,0.056091,0.994202,0.485992,1.420593,6.893616,1.0,1.0,1.0,1.0,1.0,70.0,,1721467270.887
0.508203855449546,-0.296156597550482,-0.4587160566280298,0.5654820052114969,-0.0324869721920081,-0.181094956029294,-0.1856495209488039,0.1450976531242231,0.3304252263282835,-0.0404923013651512,-0.0040722607284149,0.3417344663499279,0.3327812407991436,0.0523554689018839,0.1668122950187863,0.4471923233458223,-0.0178746044108658,-0.2664717122063217,-0.1169930381925475,0.1880898904573557,788.9377289377289,799.0109890109891,790.5494505494506,784.1025641025641,868.7179487179487,824.3956043956044,-0.101013,0.056091,0.994202,0.485992,1.420593,6.893616,1.0,1.0,1.0,1.0,1.0,70.0,,1721467270.888
0.508203855449546,-0.296156597550482,-0.4587160566280298,0.5654820052114969,-0.0324869721920081,-0.181094956029294,-0.1856495209488039,0.1450976531242231,0.3304252263282835,-0.0404923013651512,-0.0040722607284149,0.3417344663499279,0.3327812407991436,0.0523554689018839,0.1668122950187863,0.4471923233458223,-0.0178746044108658,-0.2664717122063217,-0.1169930381925475,0.1880898904573557,783.2967032967033,792.967032967033,786.5201465201466,785.3113553113553,883.2234432234433,772.014652014652,-0.101013,0.056091,0.994202,0.485992,1.420593,6.893616,1.0,1.0,1.0,1.0,1.0,70.0,,1721467270.888
0.508203855449546,-0.296156597550482,-0.4587160566280298,0.5654820052114969,-0.0324869721920081,-0.181094956029294,-0.1856495209488039,0.1450976531242231,0.3304252263282835,-0.0404923013651512,-0.0040722607284149,0.3417344663499279,0.3327812407991436,0.0523554689018839,0.1668122950187863,0.4471923233458223,-0.0178746044108658,-0.2664717122063217,-0.1169930381925475,0.1880898904573557,782.893772893773,790.5494505494506,790.5494505494506,786.1172161172161,888.8644688644689,672.893772893773,-0.101013,0.056091,0.994202,0.485992,1.420593,6.893616,1.0,1.0,1.0,1.0,1.0,70.0,,1721467270.931
0.508203855449546,-0.296156597550482,-0.4587160566280298,0.5654820052114969,-0.0324869721920081,-0.181094956029294,-0.1856495209488039,0.1450976531242231,0.3304252263282835,-0.0404923013651512,-0.0040722607284149,0.3417344663499279,0.3327812407991436,0.0523554689018839,0.1668122950187863,0.4471923233458223,-0.0178746044108658,-0.2664717122063217,-0.1169930381925475,0.1880898904573557,788.5347985347986,797.3992673992674,797.8021978021978,790.952380952381,821.5750915750916,915.0549450549452,-0.101013,0.056091,0.994202,0.485992,1.420593,6.893616,1.0,1.0,1.0,1.0,1.0,70.0,,1721467270.931
0.508203855449546,-0.296156597550482,-0.4587160566280298,0.5654820052114969,-0.0324869721920081,-0.181094956029294,-0.1856495209488039,0.1450976531242231,0.3304252263282835,-0.0404923013651512,-0.0040722607284149,0.3417344663499279,0.3327812407991436,0.0523554689018839,0.1668122950187863,0.4471923233458223,-0.0178746044108658,-0.2664717122063217,-0.1169930381925475,0.1880898904573557,794.5787545787546,797.3992673992674,796.5934065934066,792.5641025641025,759.1208791208792,1010.14652014652,-0.101013,0.056091,0.994202,0.485992,1.420593,6.893616,1.0,1.0,1.0,1.0,1.0,70.0,,1721467270.932
0.508203855449546,-0.296156597550482,-0.4587160566280298,0.5654820052114969,-0.0324869721920081,-0.181094956029294,-0.1856495209488039,0.1450976531242231,0.3304252263282835,-0.0404923013651512,-0.0040722607284149,0.3417344663499279,0.3327812407991436,0.0523554689018839,0.1668122950187863,0.4471923233458223,-0.0178746044108658,-0.2664717122063217,-0.1169930381925475,0.1880898904573557,789.3406593406594,795.3846153846154,789.3406593406594,792.1611721611722,754.2857142857143,796.1904761904763,-0.101013,0.056091,0.994202,0.485992,1.420593,6.893616,1.0,1.0,1.0,1.0,1.0,70.0,,1721467270.932
0.508203855449546,-0.296156597550482,-0.4587160566280298,0.5654820052114969,-0.0324869721920081,-0.181094956029294,-0.1856495209488039,0.1450976531242231,0.3304252263282835,-0.0404923013651512,-0.0040722607284149,0.3417344663499279,0.3327812407991436,0.0523554689018839,0.1668122950187863,0.4471923233458223,-0.0178746044108658,-0.2664717122063217,-0.1169930381925475,0.1880898904573557,787.7289377289378,799.8168498168499,788.5347985347986,788.5347985347986,772.014652014652,593.919413919414,-0.101013,0.056091,0.994202,0.485992,1.420593,6.893616,1.0,1.0,1.0,1.0,1.0,70.0,,1721467270.932
0.508203855449546,-0.296156597550482,-0.4587160566280298,0.5654820052114969,-0.0324869721920081,-0.181094956029294,-0.1856495209488039,0.1450976531242231,0.3304252263282835,-0.0404923013651512,-0.0040722607284149,0.3417344663499279,0.3327812407991436,0.0523554689018839,0.1668122950187863,0.4471923233458223,-0.0178746044108658,-0.2664717122063217,-0.1169930381925475,0.1880898904573557,790.1465201465202,798.6080586080586,790.5494505494506,774.8351648351648,709.5604395604396,879.5970695970697,-0.101013,0.056091,0.994202,0.485992,1.420593,6.893616,1.0,1.0,1.0,1.0,1.0,70.0,,1721467270.933
0.508203855449546,-0.296156597550482,-0.4587160566280298,0.5654820052114969,-0.0324869721920081,-0.181094956029294,-0.1856495209488039,0.1450976531242231,0.3304252263282835,-0.0404923013651512,-0.0040722607284149,0.3417344663499279,0.3327812407991436,0.0523554689018839,0.1668122950187863,0.4471923233458223,-0.0178746044108658,-0.2664717122063217,-0.1169930381925475,0.1880898904573557,792.1611721611722,795.7875457875458,790.1465201465202,784.1025641025641,686.1904761904763,1092.344322344322,-0.101013,0.056091,0.994202,0.485992,1.420593,6.893616,1.0,1.0,1.0,1.0,1.0,70.0,,1721467270.933
0.508203855449546,-0.296156597550482,-0.4587160566280298,0.5654820052114969,-0.0324869721920081,-0.181094956029294,-0.1856495209488039,0.1450976531242231,0.3304252263282835,-0.0404923013651512,-0.0040722607284149,0.3417344663499279,0.3327812407991436,0.0523554689018839,0.1668122950187863,0.4471923233458223,-0.0178746044108658,-0.2664717122063217,-0.1169930381925475,0.1880898904573557,787.7289377289378,791.7582417582418,788.9377289377289,796.1904761904763,794.5787545787546,829.2307692307693,-0.101013,0.056091,0.994202,0.485992,1.420593,6.893616,1.0,1.0,1.0,1.0,1.0,70.0,,1721467270.933
0.508203855449546,-0.296156597550482,-0.4587160566280298,0.5654820052114969,-0.0324869721920081,-0.181094956029294,-0.1856495209488039,0.1450976531242231,0.3304252263282835,-0.0404923013651512,-0.0040722607284149,0.3417344663499279,0.3327812407991436,0.0523554689018839,0.1668122950187863,0.4471923233458223,-0.0178746044108658,-0.2664717122063217,-0.1169930381925475,0.1880898904573557,785.7142857142858,792.1611721611722,787.7289377289378,784.5054945054945,793.3699633699634,532.2710622710623,-0.101013,0.056091,0.994202,0.485992,1.420593,6.893616,1.0,1.0,1.0,1.0,1.0,70.0,,1721467270.934
0.508203855449546,-0.296156597550482,-0.4587160566280298,0.5654820052114969,-0.0324869721920081,-0.181094956029294,-0.1856495209488039,0.1450976531242231,0.3304252263282835,-0.0404923013651512,-0.0040722607284149,0.3417344663499279,0.3327812407991436,0.0523554689018839,0.1668122950187863,0.4471923233458223,-0.0178746044108658,-0.2664717122063217,-0.1169930381925475,0.1880898904573557,792.1611721611722,795.3846153846154,786.1172161172161,775.2380952380953,790.5494505494506,603.5897435897436,-0.101013,0.056091,0.994202,0.485992,1.420593,6.893616,1.0,1.0,1.0,1.0,1.0,70.0,,1721467270.934
0.508203855449546,-0.296156597550482,-0.4587160566280298,0.5654820052114969,-0.0324869721920081,-0.181094956029294,-0.1856495209488039,0.1450976531242231,0.3304252263282835,-0.0404923013651512,-0.0040722607284149,0.3417344663499279,0.3327812407991436,0.0523554689018839,0.1668122950187863,0.4471923233458223,-0.0178746044108658,-0.2664717122063217,-0.1169930381925475,0.1880898904573557,795.3846153846154,794.981684981685,789.7435897435897,780.8791208791209,836.886446886447,745.8241758241759,-0.101013,0.056091,0.994202,0.485992,1.420593,6.893616,1.0,1.0,1.0,1.0,1.0,70.0,,1721467270.935
0.508203855449546,-0.296156597550482,-0.4587160566280298,0.5654820052114969,-0.0324869721920081,-0.181094956029294,-0.1856495209488039,0.1450976531242231,0.3304252263282835,-0.0404923013651512,-0.0040722607284149,0.3417344663499279,0.3327812407991436,0.0523554689018839,0.1668122950187863,0.4471923233458223,-0.0178746044108658,-0.2664717122063217,-0.1169930381925475,0.1880898904573557,793.7728937728938,795.3846153846154,792.1611721611722,784.1025641025641,836.886446886447,720.0366300366301,-0.101013,0.056091,0.994202,0.485992,1.420593,6.893616,1.0,1.0,1.0,1.0,1.0,70.0,,1721467270.935
0.508203855449546,-0.296156597550482,-0.4587160566280298,0.5654820052114969,-0.0324869721920081,-0.181094956029294,-0.1856495209488039,0.1450976531242231,0.3304252263282835,-0.0404923013651512,-0.0040722607284149,0.3417344663499279,0.3327812407991436,0.0523554689018839,0.1668122950187863,0.4471923233458223,-0.0178746044108658,-0.2664717122063217,-0.1169930381925475,0.1880898904573557,788.1318681318681,795.3846153846154,790.1465201465202,787.7289377289378,799.4139194139194,527.4358974358975,-0.112,0.034485,0.990601,1.211243,1.211243,2.968292,1.0,1.0,1.0,1.0,1.0,70.0,,1721467270.979
0.508203855449546,-0.296156597550482,-0.4587160566280298,0.5654820052114969,-0.0324869721920081,-0.181094956029294,-0.1856495209488039,0.1450976531242231,0.3304252263282835,-0.0404923013651512,-0.0040722607284149,0.3417344663499279,0.3327812407991436,0.0523554689018839,0.1668122950187863,0.4471923233458223,-0.0178746044108658,-0.2664717122063217,-0.1169930381925475,0.1880898904573557,782.893772893773,794.981684981685,789.3406593406594,793.3699633699634,820.3663003663004,674.5054945054945,-0.112,0.034485,0.990601,1.211243,1.211243,2.968292,1.0,1.0,1.0,1.0,1.0,70.0,,1721467270.979
0.508203855449546,-0.296156597550482,-0.4587160566280298,0.5654820052114969,-0.0324869721920081,-0.181094956029294,-0.1856495209488039,0.1450976531242231,0.3304252263282835,-0.0404923013651512,-0.0040722607284149,0.3417344663499279,0.3327812407991436,0.0523554689018839,0.1668122950187863,0.4471923233458223,-0.0178746044108658,-0.2664717122063217,-0.1169930381925475,0.1880898904573557,786.1172161172161,793.7728937728938,791.3553113553114,790.952380952381,879.5970695970697,882.4175824175825,-0.112,0.034485,0.990601,1.211243,1.211243,2.968292,1.0,1.0,1.0,1.0,1.0,70.0,,1721467270.98
0.508203855449546,-0.296156597550482,-0.4587160566280298,0.5654820052114969,-0.0324869721920081,-0.181094956029294,-0.1856495209488039,0.1450976531242231,0.3304252263282835,-0.0404923013651512,-0.0040722607284149,0.3417344663499279,0.3327812407991436,0.0523554689018839,0.1668122950187863,0.4471923233458223,-0.0178746044108658,-0.2664717122063217,-0.1169930381925475,0.1880898904573557,796.1904761904763,798.2051282051282,793.3699633699634,792.1611721611722,927.5457875457876,823.1868131868132,-0.112,0.034485,0.990601,1.211243,1.211243,2.968292,1.0,1.0,1.0,1.0,1.0,70.0,,1721467270.98
0.508203855449546,-0.296156597550482,-0.4587160566280298,0.5654820052114969,-0.0324869721920081,-0.181094956029294,-0.1856495209488039,0.1450976531242231,0.3304252263282835,-0.0404923013651512,-0.0040722607284149,0.3417344663499279,0.3327812407991436,0.0523554689018839,0.1668122950187863,0.4471923233458223,-0.0178746044108658,-0.2664717122063217,-0.1169930381925475,0.1880898904573557,796.996336996337,800.2197802197802,797.3992673992674,796.5934065934066,955.7509157509156,770.8058608058608,-0.112,0.034485,0.990601,1.211243,1.211243,2.968292,1.0,1.0,1.0,1.0,1.0,70.0,,1721467270.981
0.508203855449546,-0.296156597550482,-0.4587160566280298,0.5654820052114969,-0.0324869721920081,-0.181094956029294,-0.1856495209488039,0.1450976531242231,0.3304252263282835,-0.0404923013651512,-0.0040722607284149,0.3417344663499279,0.3327812407991436,0.0523554689018839,0.1668122950187863,0.4471923233458223,-0.0178746044108658,-0.2664717122063217,-0.1169930381925475,0.1880898904573557,798.6080586080586,796.1904761904763,800.2197802197802,805.054945054945,938.021978021978,1086.703296703297,-0.112,0.034485,0.990601,1.211243,1.211243,2.968292,1.0,1.0,1.0,1.0,1.0,70.0,,1721467270.981
0.508203855449546,-0.296156597550482,-0.4587160566280298,0.5654820052114969,-0.0324869721920081,-0.181094956029294,-0.1856495209488039,0.1450976531242231,0.3304252263282835,-0.0404923013651512,-0.0040722607284149,0.3417344663499279,0.3327812407991436,0.0523554689018839,0.1668122950187863,0.4471923233458223,-0.0178746044108658,-0.2664717122063217,-0.1169930381925475,0.1880898904573557,800.2197802197802,797.8021978021978,799.8168498168499,810.2930402930403,888.0586080586081,1390.915750915751,-0.112,0.034485,0.990601,1.211243,1.211243,2.968292,1.0,1.0,1.0,1.0,1.0,70.0,,1721467270.981
0.5343886121990162,-0.2796232590190032,-0.4654474383996455,0.5691530887092288,-0.0165362562034629,-0.1371182781597623,-0.200938464228539,0.1212388796019805,0.3304252263282835,0.0106805200095206,-0.0040722607284149,0.3121090501737853,0.3084650904841609,0.0495556539991415,0.1679438369444748,0.4354218019185135,-0.0076362768981631,-0.2955455420288414,-0.0995138863255919,0.1877961167295702,794.1758241758242,794.981684981685,793.3699633699634,794.1758241758242,819.96336996337,1117.728937728938,-0.112,0.034485,0.990601,1.211243,1.211243,2.968292,1.0,1.0,1.0,1.0,1.0,70.0,,1721467270.982
0.5343886121990162,-0.2796232590190032,-0.4654474383996455,0.5691530887092288,-0.0165362562034629,-0.1371182781597623,-0.200938464228539,0.1212388796019805,0.3304252263282835,0.0106805200095206,-0.0040722607284149,0.3121090501737853,0.3084650904841609,0.0495556539991415,0.1679438369444748,0.4354218019185135,-0.0076362768981631,-0.2955455420288414,-0.0995138863255919,0.1877961167295702,792.1611721611722,791.7582417582418,789.7435897435897,784.5054945054945,844.1391941391942,673.2967032967033,-0.112,0.034485,0.990601,1.211243,1.211243,2.968292,1.0,1.0,1.0,1.0,1.0,70.0,,1721467270.983
0.5343886121990162,-0.2796232590190032,-0.4654474383996455,0.5691530887092288,-0.0165362562034629,-0.1371182781597623,-0.200938464228539,0.1212388796019805,0.3304252263282835,0.0106805200095206,-0.0040722607284149,0.3121090501737853,0.3084650904841609,0.0495556539991415,0.1679438369444748,0.4354218019185135,-0.0076362768981631,-0.2955455420288414,-0.0995138863255919,0.1877961167295702,794.981684981685,792.5641025641025,790.5494505494506,782.893772893773,790.1465201465202,596.7399267399268,-0.112,0.034485,0.990601,1.211243,1.211243,2.968292,1.0,1.0,1.0,1.0,1.0,70.0,,1721467270.983
0.5343886121990162,-0.2796232590190032,-0.4654474383996455,0.5691530887092288,-0.0165362562034629,-0.1371182781597623,-0.200938464228539,0.1212388796019805,0.3304252263282835,0.0106805200095206,-0.0040722607284149,0.3121090501737853,0.3084650904841609,0.0495556539991415,0.1679438369444748,0.4354218019185135,-0.0076362768981631,-0.2955455420288414,-0.0995138863255919,0.1877961167295702,792.967032967033,791.7582417582418,790.952380952381,786.9230769230769,719.2307692307693,662.4175824175825,-0.112,0.034485,0.990601,1.211243,1.211243,2.968292,1.0,1.0,1.0,1.0,1.0,70.0,,1721467270.984
0.5343886121990162,-0.2796232590190032,-0.4654474383996455,0.5691530887092288,-0.0165362562034629,-0.1371182781597623,-0.200938464228539,0.1212388796019805,0.3304252263282835,0.0106805200095206,-0.0040722607284149,0.3121090501737853,0.3084650904841609,0.0495556539991415,0.1679438369444748,0.4354218019185135,-0.0076362768981631,-0.2955455420288414,-0.0995138863255919,0.1877961167295702,795.3846153846154,799.4139194139194,796.996336996337,804.6520146520147,797.8021978021978,660.4029304029305,-0.112,0.034485,0.990601,1.211243,1.211243,2.968292,1.0,1.0,1.0,1.0,1.0,70.0,,1721467270.984
0.5343886121990162,-0.2796232590190032,-0.4654474383996455,0.5691530887092288,-0.0165362562034629,-0.1371182781597623,-0.200938464228539,0.1212388796019805,0.3304252263282835,0.0106805200095206,-0.0040722607284149,0.3121090501737853,0.3084650904841609,0.0495556539991415,0.1679438369444748,0.4354218019185135,-0.0076362768981631,-0.2955455420288414,-0.0995138863255919,0.1877961167295702,802.6373626373627,806.2637362637363,798.6080586080586,809.4871794871796,800.2197802197802,742.6007326007326,-0.120178,0.033325,0.979187,1.61499,2.138367,1.570129,1.0,1.0,1.0,1.0,1.0,70.0,,1721467271.027
0.5343886121990162,-0.2796232590190032,-0.4654474383996455,0.5691530887092288,-0.0165362562034629,-0.1371182781597623,-0.200938464228539,0.1212388796019805,0.3304252263282835,0.0106805200095206,-0.0040722607284149,0.3121090501737853,0.3084650904841609,0.0495556539991415,0.1679438369444748,0.4354218019185135,-0.0076362768981631,-0.2955455420288414,-0.0995138863255919,0.1877961167295702,802.6373626373627,802.6373626373627,797.3992673992674,802.6373626373627,749.047619047619,925.5311355311356,-0.120178,0.033325,0.979187,1.61499,2.138367,1.570129,1.0,1.0,1.0,1.0,1.0,70.0,,1721467271.028
0.5343886121990162,-0.2796232590190032,-0.4654474383996455,0.5691530887092288,-0.0165362562034629,-0.1371182781597623,-0.200938464228539,0.1212388796019805,0.3304252263282835,0.0106805200095206,-0.0040722607284149,0.3121090501737853,0.3084650904841609,0.0495556539991415,0.1679438369444748,0.4354218019185135,-0.0076362768981631,-0.2955455420288414,-0.0995138863255919,0.1877961167295702,801.8315018315019,799.0109890109891,798.6080586080586,810.2930402930403,794.1758241758242,824.3956043956044,-0.120178,0.033325,0.979187,1.61499,2.138367,1.570129,1.0,1.0,1.0,1.0,1.0,70.0,,1721467271.028
0.5343886121990162,-0.2796232590190032,-0.4654474383996455,0.5691530887092288,-0.0165362562034629,-0.1371182781597623,-0.200938464228539,0.1212388796019805,0.3304252263282835,0.0106805200095206,-0.0040722607284149,0.3121090501737853,0.3084650904841609,0.0495556539991415,0.1679438369444748,0.4354218019185135,-0.0076362768981631,-0.2955455420288414,-0.0995138863255919,0.1877961167295702,798.6080586080586,793.7728937728938,801.4285714285714,808.2783882783883,863.8827838827839,710.7692307692308,-0.120178,0.033325,0.979187,1.61499,2.138367,1.570129,1.0,1.0,1.0,1.0,1.0,70.0,,1721467271.028
0.5343886121990162,-0.2796232590190032,-0.4654474383996455,0.5691530887092288,-0.0165362562034629,-0.1371182781597623,-0.200938464228539,0.1212388796019805,0.3304252263282835,0.0106805200095206,-0.0040722607284149,0.3121090501737853,0.3084650904841609,0.0495556539991415,0.1679438369444748,0.4354218019185135,-0.0076362768981631,-0.2955455420288414,-0.0995138863255919,0.1877961167295702,795.7875457875458,797.3992673992674,803.4432234432235,800.6227106227107,857.032967032967,670.0732600732601,-0.120178,0.033325,0.979187,1.61499,2.138367,1.570129,1.0,1.0,1.0,1.0,1.0,70.0,,1721467271.029
0.5343886121990162,-0.2796232590190032,-0.4654474383996455,0.5691530887092288,-0.0165362562034629,-0.1371182781597623,-0.200938464228539,0.1212388796019805,0.3304252263282835,0.0106805200095206,-0.0040722607284149,0.3121090501737853,0.3084650904841609,0.0495556539991415,0.1679438369444748,0.4354218019185135,-0.0076362768981631,-0.2955455420288414,-0.0995138863255919,0.1877961167295702,794.5787545787546,800.6227106227107,801.8315018315019,794.981684981685,745.0183150183151,912.6373626373628,-0.120178,0.033325,0.979187,1.61499,2.138367,1.570129,1.0,1.0,1.0,1.0,1.0,70.0,,1721467271.029
0.5343886121990162,-0.2796232590190032,-0.4654474383996455,0.5691530887092288,-0.0165362562034629,-0.1371182781597623,-0.200938464228539,0.1212388796019805,0.3304252263282835,0.0106805200095206,-0.0040722607284149,0.3121090501737853,0.3084650904841609,0.0495556539991415,0.1679438369444748,0.4354218019185135,-0.0076362768981631,-0.2955455420288414,-0.0995138863255919,0.1877961167295702,794.5787545787546,796.5934065934066,795.3846153846154,786.1172161172161,689.4139194139194,1066.556776556777,-0.120178,0.033325,0.979187,1.61499,2.138367,1.570129,1.0,1.0,1.0,1.0,1.0,70.0,,1721467271.029
0.5343886121990162,-0.2796232590190032,-0.4654474383996455,0.5691530887092288,-0.0165362562034629,-0.1371182781597623,-0.200938464228539,0.1212388796019805,0.3304252263282835,0.0106805200095206,-0.0040722607284149,0.3121090501737853,0.3084650904841609,0.0495556539991415,0.1679438369444748,0.4354218019185135,-0.0076362768981631,-0.2955455420288414,-0.0995138863255919,0.1877961167295702,791.3553113553114,795.3846153846154,795.7875457875458,796.5934065934066,771.2087912087912,1012.967032967033,-0.120178,0.033325,0.979187,1.61499,2.138367,1.570129,1.0,1.0,1.0,1.0,1.0,70.0,,1721467271.03
0.5343886121990162,-0.2796232590190032,-0.4654474383996455,0.5691530887092288,-0.0165362562034629,-0.1371182781597623,-0.200938464228539,0.1212388796019805,0.3304252263282835,0.0106805200095206,-0.0040722607284149,0.3121090501737853,0.3084650904841609,0.0495556539991415,0.1679438369444748,0.4354218019185135,-0.0076362768981631,-0.2955455420288414,-0.0995138863255919,0.1877961167295702,794.1758241758242,794.5787545787546,796.996336996337,802.6373626373627,786.5201465201466,664.8351648351648,-0.120178,0.033325,0.979187,1.61499,2.138367,1.570129,1.0,1.0,1.0,1.0,1.0,70.0,,1721467271.03
0.5343886121990162,-0.2796232590190032,-0.4654474383996455,0.5691530887092288,-0.0165362562034629,-0.1371182781597623,-0.200938464228539,0.1212388796019805,0.3304252263282835,0.0106805200095206,-0.0040722607284149,0.3121090501737853,0.3084650904841609,0.0495556539991415,0.1679438369444748,0.4354218019185135,-0.0076362768981631,-0.2955455420288414,-0.0995138863255919,0.1877961167295702,799.0109890109891,795.7875457875458,793.7728937728938,803.4432234432235,748.2417582417582,570.1465201465202,-0.120178,0.033325,0.979187,1.61499,2.138367,1.570129,1.0,1.0,1.0,1.0,1.0,70.0,,1721467271.031
0.5343886121990162,-0.2796232590190032,-0.4654474383996455,0.5691530887092288,-0.0165362562034629,-0.1371182781597623,-0.200938464228539,0.1212388796019805,0.3304252263282835,0.0106805200095206,-0.0040722607284149,0.3121090501737853,0.3084650904841609,0.0495556539991415,0.1679438369444748,0.4354218019185135,-0.0076362768981631,-0.2955455420288414,-0.0995138863255919,0.1877961167295702,795.3846153846154,798.2051282051282,796.5934065934066,802.2344322344322,810.6959706959707,748.2417582417582,-0.120178,0.033325,0.979187,1.61499,2.138367,1.570129,1.0,1.0,1.0,1.0,1.0,70.0,,1721467271.031
0.5343886121990162,-0.2796232590190032,-0.4654474383996455,0.5691530887092288,-0.0165362562034629,-0.1371182781597623,-0.200938464228539,0.1212388796019805,0.3304252263282835,0.0106805200095206,-0.0040722607284149,0.3121090501737853,0.3084650904841609,0.0495556539991415,0.1679438369444748,0.4354218019185135,-0.0076362768981631,-0.2955455420288414,-0.0995138863255919,0.1877961167295702,792.1611721611722,789.3406593406594,796.996336996337,787.3260073260074,863.8827838827839,738.974358974359,-0.120178,0.033325,0.979187,1.61499,2.138367,1.570129,1.0,1.0,1.0,1.0,1.0,70.0,,1721467271.031
0.5343886121990162,-0.2796232590190032,-0.4654474383996455,0.5691530887092288,-0.0165362562034629,-0.1371182781597623,-0.200938464228539,0.1212388796019805,0.3304252263282835,0.0106805200095206,-0.0040722607284149,0.3121090501737853,0.3084650904841609,0.0495556539991415,0.1679438369444748,0.4354218019185135,-0.0076362768981631,-0.2955455420288414,-0.0995138863255919,0.1877961167295702,794.5787545787546,788.1318681318681,795.3846153846154,785.7142857142858,820.7692307692308,639.047619047619,-0.134521,0.026184,0.978149,2.452393,1.772003,1.07666,1.0,1.0,1.0,1.0,1.0,70.0,,1721467271.074
0.5343886121990162,-0.2796232590190032,-0.4654474383996455,0.5691530887092288,-0.0165362562034629,-0.1371182781597623,-0.200938464228539,0.1212388796019805,0.3304252263282835,0.0106805200095206,-0.0040722607284149,0.3121090501737853,0.3084650904841609,0.0495556539991415,0.1679438369444748,0.4354218019185135,-0.0076362768981631,-0.2955455420288414,-0.0995138863255919,0.1877961167295702,799.0109890109891,795.7875457875458,798.2051282051282,792.967032967033,791.7582417582418,674.5054945054945,-0.134521,0.026184,0.978149,2.452393,1.772003,1.07666,1.0,1.0,1.0,1.0,1.0,70.0,,1721467271.075
0.5343886121990162,-0.2796232590190032,-0.4654474383996455,0.5691530887092288,-0.0165362562034629,-0.1371182781597623,-0.200938464228539,0.1212388796019805,0.3304252263282835,0.0106805200095206,-0.0040722607284149,0.3121090501737853,0.3084650904841609,0.0495556539991415,0.1679438369444748,0.4354218019185135,-0.0076362768981631,-0.2955455420288414,-0.0995138863255919,0.1877961167295702,794.5787545787546,796.5934065934066,800.2197802197802,792.1611721611722,788.5347985347986,754.6886446886447,-0.134521,0.026184,0.978149,2.452393,1.772003,1.07666,1.0,1.0,1.0,1.0,1.0,70.0,,1721467271.075
0.5343886121990162,-0.2796232590190032,-0.4654474383996455,0.5691530887092288,-0.0165362562034629,-0.1371182781597623,-0.200938464228539,0.1212388796019805,0.3304252263282835,0.0106805200095206,-0.0040722607284149,0.3121090501737853,0.3084650904841609,0.0495556539991415,0.1679438369444748,0.4354218019185135,-0.0076362768981631,-0.2955455420288414,-0.0995138863255919,0.1877961167295702,790.1465201465202,796.1904761904763,794.5787545787546,790.1465201465202,806.6666666666667,722.4542124542124,-0.134521,0.026184,0.978149,2.452393,1.772003,1.07666,1.0,1.0,1.0,1.0,1.0,70.0,,1721467271.076
0.5343886121990162,-0.2796232590190032,-0.4654474383996455,0.5691530887092288,-0.0165362562034629,-0.1371182781597623,-0.200938464228539,0.1212388796019805,0.3304252263282835,0.0106805200095206,-0.0040722607284149,0.3121090501737853,0.3084650904841609,0.0495556539991415,0.1679438369444748,0.4354218019185135,-0.0076362768981631,-0.2955455420288414,-0.0995138863255919,0.1877961167295702,790.1465201465202,797.3992673992674,788.1318681318681,788.9377289377289,809.4871794871796,593.5164835164835,-0.134521,0.026184,0.978149,2.452393,1.772003,1.07666,1.0,1.0,1.0,1.0,1.0,70.0,,1721467271.076
0.5343886121990162,-0.2796232590190032,-0.4654474383996455,0.5691530887092288,-0.0165362562034629,-0.1371182781597623,-0.200938464228539,0.1212388796019805,0.3304252263282835,0.0106805200095206,-0.0040722607284149,0.3121090501737853,0.3084650904841609,0.0495556539991415,0.1679438369444748,0.4354218019185135,-0.0076362768981631,-0.2955455420288414,-0.0995138863255919,0.1877961167295702,785.3113553113553,798.2051282051282,793.7728937728938,793.7728937728938,794.5787545787546,929.1575091575093,-0.134521,0.026184,0.978149,2.452393,1.772003,1.07666,1.0,1.0,1.0,1.0,1.0,70.0,,1721467271.076
0.5343886121990162,-0.2796232590190032,-0.4654474383996455,0.5691530887092288,-0.0165362562034629,-0.1371182781597623,-0.200938464228539,0.1212388796019805,0.3304252263282835,0.0106805200095206,-0.0040722607284149,0.3121090501737853,0.3084650904841609,0.0495556539991415,0.1679438369444748,0.4354218019185135,-0.0076362768981631,-0.2955455420288414,-0.0995138863255919,0.1877961167295702,783.6996336996338,802.2344322344322,804.2490842490843,806.2637362637363,827.6190476190476,1228.534798534798,-0.134521,0.026184,0.978149,2.452393,1.772003,1.07666,1.0,1.0,1.0,1.0,1.0,70.0,,1721467271.076
0.5343886121990162,-0.2796232590190032,-0.4654474383996455,0.5691530887092288,-0.0165362562034629,-0.1371182781597623,-0.200938464228539,0.1212388796019805,0.3304252263282835,0.0106805200095206,-0.0040722607284149,0.3121090501737853,0.3084650904841609,0.0495556539991415,0.1679438369444748,0.4354218019185135,-0.0076362768981631,-0.2955455420288414,-0.0995138863255919,0.1877961167295702,786.5201465201466,803.8461538461539,801.8315018315019,811.9047619047619,855.8241758241759,979.1208791208792,-0.134521,0.026184,0.978149,2.452393,1.772003,1.07666,1.0,1.0,1.0,1.0,1.0,70.0,,1721467271.077
0.5343886121990162,-0.2796232590190032,-0.4654474383996455,0.5691530887092288,-0.0165362562034629,-0.1371182781597623,-0.200938464228539,0.1212388796019805,0.3304252263282835,0.0106805200095206,-0.0040722607284149,0.3121090501737853,0.3084650904841609,0.0495556539991415,0.1679438369444748,0.4354218019185135,-0.0076362768981631,-0.2955455420288414,-0.0995138863255919,0.1877961167295702,786.9230769230769,798.2051282051282,796.5934065934066,801.8315018315019,836.886446886447,583.040293040293,-0.134521,0.026184,0.978149,2.452393,1.772003,1.07666,1.0,1.0,1.0,1.0,1.0,70.0,,1721467271.077
0.5417132149017975,-0.2656334934957565,-0.4342979842659802,0.5782934263242956,-0.0086639621453865,-0.1033400000382748,-0.2292680775668679,0.092478251861244,0.3260767933732033,0.0500753205688413,-0.0040722607284149,0.2854172775303616,0.27671108390712,0.0383218021043681,0.1691818842266857,0.4220437792191852,-0.0036917528018032,-0.3141661953128179,-0.0893378448280304,0.1853388279431736,783.2967032967033,795.3846153846154,791.7582417582418,795.3846153846154,817.1428571428571,716.8131868131868,-0.134521,0.026184,0.978149,2.452393,1.772003,1.07666,1.0,1.0,1.0,1.0,1.0,70.0,,1721467271.077
0.5417132149017975,-0.2656334934957565,-0.4342979842659802,0.5782934263242956,-0.0086639621453865,-0.1033400000382748,-0.2292680775668679,0.092478251861244,0.3260767933732033,0.0500753205688413,-0.0040722607284149,0.2854172775303616,0.27671108390712,0.0383218021043681,0.1691818842266857,0.4220437792191852,-0.0036917528018032,-0.3141661953128179,-0.0893378448280304,0.1853388279431736,783.2967032967033,798.2051282051282,790.952380952381,796.5934065934066,829.6336996336996,995.6410256410256,-0.134521,0.026184,0.978149,2.452393,1.772003,1.07666,1.0,1.0,1.0,1.0,1.0,70.0,,1721467271.078
0.5417132149017975,-0.2656334934957565,-0.4342979842659802,0.5782934263242956,-0.0086639621453865,-0.1033400000382748,-0.2292680775668679,0.092478251861244,0.3260767933732033,0.0500753205688413,-0.0040722607284149,0.2854172775303616,0.27671108390712,0.0383218021043681,0.1691818842266857,0.4220437792191852,-0.0036917528018032,-0.3141661953128179,-0.0893378448280304,0.1853388279431736,785.7142857142858,797.8021978021978,794.1758241758242,794.981684981685,872.3443223443223,817.948717948718,-0.134521,0.026184,0.978149,2.452393,1.772003,1.07666,1.0,1.0,1.0,1.0,1.0,70.0,,1721467271.079
0.5417132149017975,-0.2656334934957565,-0.4342979842659802,0.5782934263242956,-0.0086639621453865,-0.1033400000382748,-0.2292680775668679,0.092478251861244,0.3260767933732033,0.0500753205688413,-0.0040722607284149,0.2854172775303616,0.27671108390712,0.0383218021043681,0.1691818842266857,0.4220437792191852,-0.0036917528018032,-0.3141661953128179,-0.0893378448280304,0.1853388279431736,789.3406593406594,794.981684981685,801.025641025641,797.8021978021978,857.8388278388279,762.7472527472528,-0.143188,0.031677,0.954346,3.267365,0.014954,0.336456,1.0,1.0,1.0,1.0,1.0,70.0,,1721467271.122
0.5417132149017975,-0.2656334934957565,-0.4342979842659802,0.5782934263242956,-0.0086639621453865,-0.1033400000382748,-0.2292680775668679,0.092478251861244,0.3260767933732033,0.0500753205688413,-0.0040722607284149,0.2854172775303616,0.27671108390712,0.0383218021043681,0.1691818842266857,0.4220437792191852,-0.0036917528018032,-0.3141661953128179,-0.0893378448280304,0.1853388279431736,794.981684981685,794.981684981685,803.040293040293,801.8315018315019,759.92673992674,932.7838827838827,-0.143188,0.031677,0.954346,3.267365,0.014954,0.336456,1.0,1.0,1.0,1.0,1.0,70.0,,1721467271.122
0.5417132149017975,-0.2656334934957565,-0.4342979842659802,0.5782934263242956,-0.0086639621453865,-0.1033400000382748,-0.2292680775668679,0.092478251861244,0.3260767933732033,0.0500753205688413,-0.0040722607284149,0.2854172775303616,0.27671108390712,0.0383218021043681,0.1691818842266857,0.4220437792191852,-0.0036917528018032,-0.3141661953128179,-0.0893378448280304,0.1853388279431736,795.7875457875458,794.1758241758242,795.3846153846154,790.1465201465202,782.4908424908425,847.3626373626374,-0.143188,0.031677,0.954346,3.267365,0.014954,0.336456,1.0,1.0,1.0,1.0,1.0,70.0,,1721467271.122
0.5417132149017975,-0.2656334934957565,-0.4342979842659802,0.5782934263242956,-0.0086639621453865,-0.1033400000382748,-0.2292680775668679,0.092478251861244,0.3260767933732033,0.0500753205688413,-0.0040722607284149,0.2854172775303616,0.27671108390712,0.0383218021043681,0.1691818842266857,0.4220437792191852,-0.0036917528018032,-0.3141661953128179,-0.0893378448280304,0.1853388279431736,786.9230769230769,792.5641025641025,790.952380952381,789.7435897435897,837.6923076923077,728.901098901099,-0.143188,0.031677,0.954346,3.267365,0.014954,0.336456,1.0,1.0,1.0,1.0,1.0,70.0,,1721467271.123
0.5417132149017975,-0.2656334934957565,-0.4342979842659802,0.5782934263242956,-0.0086639621453865,-0.1033400000382748,-0.2292680775668679,0.092478251861244,0.3260767933732033,0.0500753205688413,-0.0040722607284149,0.2854172775303616,0.27671108390712,0.0383218021043681,0.1691818842266857,0.4220437792191852,-0.0036917528018032,-0.3141661953128179,-0.0893378448280304,0.1853388279431736,791.3553113553114,792.5641025641025,796.5934065934066,798.6080586080586,870.3296703296703,708.7545787545788,-0.143188,0.031677,0.954346,3.267365,0.014954,0.336456,1.0,1.0,1.0,1.0,1.0,70.0,,1721467271.123
0.5417132149017975,-0.2656334934957565,-0.4342979842659802,0.5782934263242956,-0.0086639621453865,-0.1033400000382748,-0.2292680775668679,0.092478251861244,0.3260767933732033,0.0500753205688413,-0.0040722607284149,0.2854172775303616,0.27671108390712,0.0383218021043681,0.1691818842266857,0.4220437792191852,-0.0036917528018032,-0.3141661953128179,-0.0893378448280304,0.1853388279431736,792.1611721611722,789.3406593406594,803.040293040293,801.8315018315019,920.2930402930403,1079.85347985348,-0.143188,0.031677,0.954346,3.267365,0.014954,0.336456,1.0,1.0,1.0,1.0,1.0,70.0,,1721467271.123
0.5417132149017975,-0.2656334934957565,-0.4342979842659802,0.5782934263242956,-0.0086639621453865,-0.1033400000382748,-0.2292680775668679,0.092478251861244,0.3260767933732033,0.0500753205688413,-0.0040722607284149,0.2854172775303616,0.27671108390712,0.0383218021043681,0.1691818842266857,0.4220437792191852,-0.0036917528018032,-0.3141661953128179,-0.0893378448280304,0.1853388279431736,784.1025641025641,788.1318681318681,801.025641025641,810.2930402930403,944.4688644688644,1328.461538461539,-0.143188,0.031677,0.954346,3.267365,0.014954,0.336456,1.0,1.0,1.0,1.0,1.0,70.0,,1721467271.124
0.5417132149017975,-0.2656334934957565,-0.4342979842659802,0.5782934263242956,-0.0086639621453865,-0.1033400000382748,-0.2292680775668679,0.092478251861244,0.3260767933732033,0.0500753205688413,-0.0040722607284149,0.2854172775303616,0.27671108390712,0.0383218021043681,0.1691818842266857,0.4220437792191852,-0.0036917528018032,-0.3141661953128179,-0.0893378448280304,0.1853388279431736,787.3260073260074,791.3553113553114,790.952380952381,803.4432234432235,894.5054945054945,978.3150183150184,-0.143188,0.031677,0.954346,3.267365,0.014954,0.336456,1.0,1.0,1.0,1.0,1.0,70.0,,1721467271.124
0.5417132149017975,-0.2656334934957565,-0.4342979842659802,0.5782934263242956,-0.0086639621453865,-0.1033400000382748,-0.2292680775668679,0.092478251861244,0.3260767933732033,0.0500753205688413,-0.0040722607284149,0.2854172775303616,0.27671108390712,0.0383218021043681,0.1691818842266857,0.4220437792191852,-0.0036917528018032,-0.3141661953128179,-0.0893378448280304,0.1853388279431736,788.1318681318681,788.1318681318681,784.1025641025641,782.893772893773,860.6593406593407,697.4725274725275,-0.143188,0.031677,0.954346,3.267365,0.014954,0.336456,1.0,1.0,1.0,1.0,1.0,70.0,,1721467271.124
0.5417132149017975,-0.2656334934957565,-0.4342979842659802,0.5782934263242956,-0.0086639621453865,-0.1033400000382748,-0.2292680775668679,0.092478251861244,0.3260767933732033,0.0500753205688413,-0.0040722607284149,0.2854172775303616,0.27671108390712,0.0383218021043681,0.1691818842266857,0.4220437792191852,-0.0036917528018032,-0.3141661953128179,-0.0893378448280304,0.1853388279431736,781.6849816849817,788.9377289377289,790.1465201465202,796.1904761904763,853.0036630036631,761.1355311355312,-0.143188,0.031677,0.954346,3.267365,0.014954,0.336456,1.0,1.0,1.0,1.0,1.0,70.0,,1721467271.125
0.5417132149017975,-0.2656334934957565,-0.4342979842659802,0.5782934263242956,-0.0086639621453865,-0.1033400000382748,-0.2292680775668679,0.092478251861244,0.3260767933732033,0.0500753205688413,-0.0040722607284149,0.2854172775303616,0.27671108390712,0.0383218021043681,0.1691818842266857,0.4220437792191852,-0.0036917528018032,-0.3141661953128179,-0.0893378448280304,0.1853388279431736,781.2820512820513,793.3699633699634,794.981684981685,809.4871794871796,833.2600732600733,756.7032967032967,-0.143188,0.031677,0.954346,3.267365,0.014954,0.336456,1.0,1.0,1.0,1.0,1.0,70.0,,1721467271.125
0.5417132149017975,-0.2656334934957565,-0.4342979842659802,0.5782934263242956,-0.0086639621453865,-0.1033400000382748,-0.2292680775668679,0.092478251861244,0.3260767933732033,0.0500753205688413,-0.0040722607284149,0.2854172775303616,0.27671108390712,0.0383218021043681,0.1691818842266857,0.4220437792191852,-0.0036917528018032,-0.3141661953128179,-0.0893378448280304,0.1853388279431736,784.1025641025641,792.967032967033,790.1465201465202,794.981684981685,782.893772893773,780.8791208791209,-0.143188,0.031677,0.954346,3.267365,0.014954,0.336456,1.0,1.0,1.0,1.0,1.0,70.0,,1721467271.125
0.5417132149017975,-0.2656334934957565,-0.4342979842659802,0.5782934263242956,-0.0086639621453865,-0.1033400000382748,-0.2292680775668679,0.092478251861244,0.3260767933732033,0.0500753205688413,-0.0040722607284149,0.2854172775303616,0.27671108390712,0.0383218021043681,0.1691818842266857,0.4220437792191852,-0.0036917528018032,-0.3141661953128179,-0.0893378448280304,0.1853388279431736,782.893772893773,798.6080586080586,786.5201465201466,788.9377289377289,786.1172161172161,833.6630036630037,-0.132812,0.028748,0.948853,4.755249,-3.192596,0.067291,1.0,1.0,1.0,1.0,1.0,70.0,,1721467271.169
0.5417132149017975,-0.2656334934957565,-0.4342979842659802,0.5782934263242956,-0.0086639621453865,-0.1033400000382748,-0.2292680775668679,0.092478251861244,0.3260767933732033,0.0500753205688413,-0.0040722607284149,0.2854172775303616,0.27671108390712,0.0383218021043681,0.1691818842266857,0.4220437792191852,-0.0036917528018032,-0.3141661953128179,-0.0893378448280304,0.1853388279431736,782.4908424908425,801.8315018315019,786.1172161172161,794.981684981685,798.6080586080586,730.9157509157509,-0.132812,0.028748,0.948853,4.755249,-3.192596,0.067291,1.0,1.0,1.0,1.0,1.0,70.0,,1721467271.17
0.5417132149017975,-0.2656334934957565,-0.4342979842659802,0.5782934263242956,-0.0086639621453865,-0.1033400000382748,-0.2292680775668679,0.092478251861244,0.3260767933732033,0.0500753205688413,-0.0040722607284149,0.2854172775303616,0.27671108390712,0.0383218021043681,0.1691818842266857,0.4220437792191852,-0.0036917528018032,-0.3141661953128179,-0.0893378448280304,0.1853388279431736,794.5787545787546,803.040293040293,791.3553113553114,797.3992673992674,811.0989010989011,769.1941391941392,-0.132812,0.028748,0.948853,4.755249,-3.192596,0.067291,1.0,1.0,1.0,1.0,1.0,70.0,,1721467271.17
0.5417132149017975,-0.2656334934957565,-0.4342979842659802,0.5782934263242956,-0.0086639621453865,-0.1033400000382748,-0.2292680775668679,0.092478251861244,0.3260767933732033,0.0500753205688413,-0.0040722607284149,0.2854172775303616,0.27671108390712,0.0383218021043681,0.1691818842266857,0.4220437792191852,-0.0036917528018032,-0.3141661953128179,-0.0893378448280304,0.1853388279431736,803.4432234432235,806.2637362637363,799.4139194139194,803.4432234432235,829.6336996336996,801.025641025641,-0.132812,0.028748,0.948853,4.755249,-3.192596,0.067291,1.0,1.0,1.0,1.0,1.0,70.0,,1721467271.17
0.5417132149017975,-0.2656334934957565,-0.4342979842659802,0.5782934263242956,-0.0086639621453865,-0.1033400000382748,-0.2292680775668679,0.092478251861244,0.3260767933732033,0.0500753205688413,-0.0040722607284149,0.2854172775303616,0.27671108390712,0.0383218021043681,0.1691818842266857,0.4220437792191852,-0.0036917528018032,-0.3141661953128179,-0.0893378448280304,0.1853388279431736,800.2197802197802,809.0842490842491,796.996336996337,808.2783882783883,806.2637362637363,699.4871794871796,-0.132812,0.028748,0.948853,4.755249,-3.192596,0.067291,1.0,1.0,1.0,1.0,1.0,70.0,,1721467271.171
0.5417132149017975,-0.2656334934957565,-0.4342979842659802,0.5782934263242956,-0.0086639621453865,-0.1033400000382748,-0.2292680775668679,0.092478251861244,0.3260767933732033,0.0500753205688413,-0.0040722607284149,0.2854172775303616,0.27671108390712,0.0383218021043681,0.1691818842266857,0.4220437792191852,-0.0036917528018032,-0.3141661953128179,-0.0893378448280304,0.1853388279431736,794.1758241758242,810.2930402930403,794.5787545787546,797.8021978021978,756.3003663003664,896.9230769230769,-0.132812,0.028748,0.948853,4.755249,-3.192596,0.067291,1.0,1.0,1.0,1.0,1.0,70.0,,1721467271.171
0.5417132149017975,-0.2656334934957565,-0.4342979842659802,0.5782934263242956,-0.0086639621453865,-0.1033400000382748,-0.2292680775668679,0.092478251861244,0.3260767933732033,0.0500753205688413,-0.0040722607284149,0.2854172775303616,0.27671108390712,0.0383218021043681,0.1691818842266857,0.4220437792191852,-0.0036917528018032,-0.3141661953128179,-0.0893378448280304,0.1853388279431736,790.5494505494506,805.8608058608058,794.981684981685,795.7875457875458,711.978021978022,1075.421245421245,-0.132812,0.028748,0.948853,4.755249,-3.192596,0.067291,1.0,1.0,1.0,1.0,1.0,70.0,,1721467271.171
0.5417132149017975,-0.2656334934957565,-0.4342979842659802,0.5782934263242956,-0.0086639621453865,-0.1033400000382748,-0.2292680775668679,0.092478251861244,0.3260767933732033,0.0500753205688413,-0.0040722607284149,0.2854172775303616,0.27671108390712,0.0383218021043681,0.1691818842266857,0.4220437792191852,-0.0036917528018032,-0.3141661953128179,-0.0893378448280304,0.1853388279431736,788.9377289377289,801.025641025641,792.967032967033,791.3553113553114,778.8644688644689,1046.410256410256,-0.132812,0.028748,0.948853,4.755249,-3.192596,0.067291,1.0,1.0,1.0,1.0,1.0,70.0,,1721467271.172
0.5417132149017975,-0.2656334934957565,-0.4342979842659802,0.5782934263242956,-0.0086639621453865,-0.1033400000382748,-0.2292680775668679,0.092478251861244,0.3260767933732033,0.0500753205688413,-0.0040722607284149,0.2854172775303616,0.27671108390712,0.0383218021043681,0.1691818842266857,0.4220437792191852,-0.0036917528018032,-0.3141661953128179,-0.0893378448280304,0.1853388279431736,792.1611721611722,800.2197802197802,795.3846153846154,791.7582417582418,873.5531135531136,833.2600732600733,-0.132812,0.028748,0.948853,4.755249,-3.192596,0.067291,1.0,1.0,1.0,1.0,1.0,70.0,,1721467271.172
0.5417132149017975,-0.2656334934957565,-0.4342979842659802,0.5782934263242956,-0.0086639621453865,-0.1033400000382748,-0.2292680775668679,0.092478251861244,0.3260767933732033,0.0500753205688413,-0.0040722607284149,0.2854172775303616,0.27671108390712,0.0383218021043681,0.1691818842266857,0.4220437792191852,-0.0036917528018032,-0.3141661953128179,-0.0893378448280304,0.1853388279431736,793.3699633699634,802.6373626373627,796.5934065934066,796.996336996337,840.1098901098901,723.2600732600732,-0.132812,0.028748,0.948853,4.755249,-3.192596,0.067291,1.0,1.0,1.0,1.0,1.0,70.0,,1721467271.172
0.5417132149017975,-0.2656334934957565,-0.4342979842659802,0.5782934263242956,-0.0086639621453865,-0.1033400000382748,-0.2292680775668679,0.092478251861244,0.3260767933732033,0.0500753205688413,-0.0040722607284149,0.2854172775303616,0.27671108390712,0.0383218021043681,0.1691818842266857,0.4220437792191852,-0.0036917528018032,-0.3141661953128179,-0.0893378448280304,0.1853388279431736,790.952380952381,804.6520146520147,791.3553113553114,803.040293040293,792.5641025641025,749.4505494505495,-0.132812,0.028748,0.948853,4.755249,-3.192596,0.067291,1.0,1.0,1.0,1.0,1.0,70.0,,1721467271.172
0.5289679520851125,-0.2543708327429258,-0.3511683699730902,0.5930585546667949,-0.0125999174304892,-0.0896387229335014,-0.2593034483091005,0.057817611553635,0.2921325256492588,0.0852310290996802,-0.0040722607284149,0.2732971805400865,0.2348265078135841,0.0182620366668876,0.1671737010894137,0.4043695630186192,-0.0034599957891312,-0.318365113037424,-0.0898531240927414,0.1772889016275064,790.5494505494506,803.4432234432235,788.1318681318681,802.6373626373627,805.8608058608058,716.007326007326,-0.132812,0.028748,0.948853,4.755249,-3.192596,0.067291,1.0,1.0,1.0,1.0,1.0,70.0,,1721467271.173
0.5289679520851125,-0.2543708327429258,-0.3511683699730902,0.5930585546667949,-0.0125999174304892,-0.0896387229335014,-0.2593034483091005,0.057817611553635,0.2921325256492588,0.0852310290996802,-0.0040722607284149,0.2732971805400865,0.2348265078135841,0.0182620366668876,0.1671737010894137,0.4043695630186192,-0.0034599957891312,-0.318365113037424,-0.0898531240927414,0.1772889016275064,792.1611721611722,799.0109890109891,786.5201465201466,800.2197802197802,814.7252747252747,614.4688644688645,-0.113525,0.03717,0.977417,4.104767,-6.452484,0.493469,1.0,1.0,1.0,1.0,1.0,70.0,,1721467271.215
0.5289679520851125,-0.2543708327429258,-0.3511683699730902,0.5930585546667949,-0.0125999174304892,-0.0896387229335014,-0.2593034483091005,0.057817611553635,0.2921325256492588,0.0852310290996802,-0.0040722607284149,0.2732971805400865,0.2348265078135841,0.0182620366668876,0.1671737010894137,0.4043695630186192,-0.0034599957891312,-0.318365113037424,-0.0898531240927414,0.1772889016275064,790.952380952381,795.3846153846154,789.7435897435897,805.8608058608058,751.4652014652015,888.8644688644689,-0.113525,0.03717,0.977417,4.104767,-6.452484,0.493469,1.0,1.0,1.0,1.0,1.0,70.0,,1721467271.216
0.5289679520851125,-0.2543708327429258,-0.3511683699730902,0.5930585546667949,-0.0125999174304892,-0.0896387229335014,-0.2593034483091005,0.057817611553635,0.2921325256492588,0.0852310290996802,-0.0040722607284149,0.2732971805400865,0.2348265078135841,0.0182620366668876,0.1671737010894137,0.4043695630186192,-0.0034599957891312,-0.318365113037424,-0.0898531240927414,0.1772889016275064,789.3406593406594,790.5494505494506,791.7582417582418,794.1758241758242,732.1245421245421,1095.164835164835,-0.113525,0.03717,0.977417,4.104767,-6.452484,0.493469,1.0,1.0,1.0,1.0,1.0,70.0,,1721467271.216
0.5289679520851125,-0.2543708327429258,-0.3511683699730902,0.5930585546667949,-0.0125999174304892,-0.0896387229335014,-0.2593034483091005,0.057817611553635,0.2921325256492588,0.0852310290996802,-0.0040722607284149,0.2732971805400865,0.2348265078135841,0.0182620366668876,0.1671737010894137,0.4043695630186192,-0.0034599957891312,-0.318365113037424,-0.0898531240927414,0.1772889016275064,785.3113553113553,785.3113553113553,784.5054945054945,780.8791208791209,739.3772893772893,792.1611721611722,-0.113525,0.03717,0.977417,4.104767,-6.452484,0.493469,1.0,1.0,1.0,1.0,1.0,70.0,,1721467271.217
0.5289679520851125,-0.2543708327429258,-0.3511683699730902,0.5930585546667949,-0.0125999174304892,-0.0896387229335014,-0.2593034483091005,0.057817611553635,0.2921325256492588,0.0852310290996802,-0.0040722607284149,0.2732971805400865,0.2348265078135841,0.0182620366668876,0.1671737010894137,0.4043695630186192,-0.0034599957891312,-0.318365113037424,-0.0898531240927414,0.1772889016275064,784.1025641025641,788.1318681318681,783.2967032967033,793.3699633699634,770.4029304029305,716.007326007326,-0.113525,0.03717,0.977417,4.104767,-6.452484,0.493469,1.0,1.0,1.0,1.0,1.0,70.0,,1721467271.217
0.5289679520851125,-0.2543708327429258,-0.3511683699730902,0.5930585546667949,-0.0125999174304892,-0.0896387229335014,-0.2593034483091005,0.057817611553635,0.2921325256492588,0.0852310290996802,-0.0040722607284149,0.2732971805400865,0.2348265078135841,0.0182620366668876,0.1671737010894137,0.4043695630186192,-0.0034599957891312,-0.318365113037424,-0.0898531240927414,0.1772889016275064,786.1172161172161,793.7728937728938,794.1758241758242,789.3406593406594,788.5347985347986,1016.593406593407,-0.113525,0.03717,0.977417,4.104767,-6.452484,0.493469,1.0,1.0,1.0,1.0,1.0,70.0,,1721467271.218
0.5289679520851125,-0.2543708327429258,-0.3511683699730902,0.5930585546667949,-0.0125999174304892,-0.0896387229335014,-0.2593034483091005,0.057817611553635,0.2921325256492588,0.0852310290996802,-0.0040722607284149,0.2732971805400865,0.2348265078135841,0.0182620366668876,0.1671737010894137,0.4043695630186192,-0.0034599957891312,-0.318365113037424,-0.0898531240927414,0.1772889016275064,792.1611721611722,795.3846153846154,798.6080586080586,778.4615384615385,737.3626373626374,1111.282051282051,-0.113525,0.03717,0.977417,4.104767,-6.452484,0.493469,1.0,1.0,1.0,1.0,1.0,70.0,,1721467271.218
0.5289679520851125,-0.2543708327429258,-0.3511683699730902,0.5930585546667949,-0.0125999174304892,-0.0896387229335014,-0.2593034483091005,0.057817611553635,0.2921325256492588,0.0852310290996802,-0.0040722607284149,0.2732971805400865,0.2348265078135841,0.0182620366668876,0.1671737010894137,0.4043695630186192,-0.0034599957891312,-0.318365113037424,-0.0898531240927414,0.1772889016275064,797.3992673992674,793.7728937728938,792.967032967033,783.2967032967033,707.5457875457876,797.3992673992674,-0.113525,0.03717,0.977417,4.104767,-6.452484,0.493469,1.0,1.0,1.0,1.0,1.0,70.0,,1721467271.218
0.5289679520851125,-0.2543708327429258,-0.3511683699730902,0.5930585546667949,-0.0125999174304892,-0.0896387229335014,-0.2593034483091005,0.057817611553635,0.2921325256492588,0.0852310290996802,-0.0040722607284149,0.2732971805400865,0.2348265078135841,0.0182620366668876,0.1671737010894137,0.4043695630186192,-0.0034599957891312,-0.318365113037424,-0.0898531240927414,0.1772889016275064,792.967032967033,794.1758241758242,785.7142857142858,787.7289377289378,783.6996336996338,582.6373626373627,-0.113525,0.03717,0.977417,4.104767,-6.452484,0.493469,1.0,1.0,1.0,1.0,1.0,70.0,,1721467271.219
0.5289679520851125,-0.2543708327429258,-0.3511683699730902,0.5930585546667949,-0.0125999174304892,-0.0896387229335014,-0.2593034483091005,0.057817611553635,0.2921325256492588,0.0852310290996802,-0.0040722607284149,0.2732971805400865,0.2348265078135841,0.0182620366668876,0.1671737010894137,0.4043695630186192,-0.0034599957891312,-0.318365113037424,-0.0898531240927414,0.1772889016275064,782.893772893773,790.952380952381,787.7289377289378,782.0879120879121,846.5567765567765,695.8608058608058,-0.113525,0.03717,0.977417,4.104767,-6.452484,0.493469,1.0,1.0,1.0,1.0,1.0,70.0,,1721467271.219
0.5289679520851125,-0.2543708327429258,-0.3511683699730902,0.5930585546667949,-0.0125999174304892,-0.0896387229335014,-0.2593034483091005,0.057817611553635,0.2921325256492588,0.0852310290996802,-0.0040722607284149,0.2732971805400865,0.2348265078135841,0.0182620366668876,0.1671737010894137,0.4043695630186192,-0.0034599957891312,-0.318365113037424,-0.0898531240927414,0.1772889016275064,785.3113553113553,790.5494505494506,790.1465201465202,778.4615384615385,770.4029304029305,701.9047619047619,-0.113525,0.03717,0.977417,4.104767,-6.452484,0.493469,1.0,1.0,1.0,1.0,1.0,70.0,,1721467271.219
0.5289679520851125,-0.2543708327429258,-0.3511683699730902,0.5930585546667949,-0.0125999174304892,-0.0896387229335014,-0.2593034483091005,0.057817611553635,0.2921325256492588,0.0852310290996802,-0.0040722607284149,0.2732971805400865,0.2348265078135841,0.0182620366668876,0.1671737010894137,0.4043695630186192,-0.0034599957891312,-0.318365113037424,-0.0898531240927414,0.1772889016275064,792.5641025641025,798.6080586080586,795.3846153846154,792.1611721611722,776.8498168498169,701.9047619047619,-0.113525,0.03717,0.977417,4.104767,-6.452484,0.493469,1.0,1.0,1.0,1.0,1.0,70.0,,1721467271.22
0.5289679520851125,-0.2543708327429258,-0.3511683699730902,0.5930585546667949,-0.0125999174304892,-0.0896387229335014,-0.2593034483091005,0.057817611553635,0.2921325256492588,0.0852310290996802,-0.0040722607284149,0.2732971805400865,0.2348265078135841,0.0182620366668876,0.1671737010894137,0.4043695630186192,-0.0034599957891312,-0.318365113037424,-0.0898531240927414,0.1772889016275064,790.1465201465202,801.4285714285714,796.5934065934066,793.3699633699634,785.3113553113553,572.1611721611722,-0.113525,0.03717,0.977417,4.104767,-6.452484,0.493469,1.0,1.0,1.0,1.0,1.0,70.0,,1721467271.264
0.5289679520851125,-0.2543708327429258,-0.3511683699730902,0.5930585546667949,-0.0125999174304892,-0.0896387229335014,-0.2593034483091005,0.057817611553635,0.2921325256492588,0.0852310290996802,-0.0040722607284149,0.2732971805400865,0.2348265078135841,0.0182620366668876,0.1671737010894137,0.4043695630186192,-0.0034599957891312,-0.318365113037424,-0.0898531240927414,0.1772889016275064,792.1611721611722,799.8168498168499,796.5934065934066,790.952380952381,759.5238095238095,612.4542124542124,-0.113525,0.03717,0.977417,4.104767,-6.452484,0.493469,1.0,1.0,1.0,1.0,1.0,70.0,,1721467271.264
0.5289679520851125,-0.2543708327429258,-0.3511683699730902,0.5930585546667949,-0.0125999174304892,-0.0896387229335014,-0.2593034483091005,0.057817611553635,0.2921325256492588,0.0852310290996802,-0.0040722607284149,0.2732971805400865,0.2348265078135841,0.0182620366668876,0.1671737010894137,0.4043695630186192,-0.0034599957891312,-0.318365113037424,-0.0898531240927414,0.1772889016275064,792.1611721611722,797.3992673992674,792.967032967033,789.7435897435897,736.1538461538462,709.9633699633699,-0.113525,0.03717,0.977417,4.104767,-6.452484,0.493469,1.0,1.0,1.0,1.0,1.0,70.0,,1721467271.265
0.5289679520851125,-0.2543708327429258,-0.3511683699730902,0.5930585546667949,-0.0125999174304892,-0.0896387229335014,-0.2593034483091005,0.057817611553635,0.2921325256492588,0.0852310290996802,-0.0040722607284149,0.2732971805400865,0.2348265078135841,0.0182620366668876,0.1671737010894137,0.4043695630186192,-0.0034599957891312,-0.318365113037424,-0.0898531240927414,0.1772889016275064,790.5494505494506,795.7875457875458,786.1172161172161,783.2967032967033,756.3003663003664,699.4871794871796,-0.113525,0.03717,0.977417,4.104767,-6.452484,0.493469,1.0,1.0,1.0,1.0,1.0,70.0,,1721467271.265
0.5289679520851125,-0.2543708327429258,-0.3511683699730902,0.5930585546667949,-0.0125999174304892,-0.0896387229335014,-0.2593034483091005,0.057817611553635,0.2921325256492588,0.0852310290996802,-0.0040722607284149,0.2732971805400865,0.2348265078135841,0.0182620366668876,0.1671737010894137,0.4043695630186192,-0.0034599957891312,-0.318365113037424,-0.0898531240927414,0.1772889016275064,792.5641025641025,798.2051282051282,789.3406593406594,788.1318681318681,787.3260073260074,641.0622710622711,-0.113525,0.03717,0.977417,4.104767,-6.452484,0.493469,1.0,1.0,1.0,1.0,1.0,70.0,,1721467271.266
0.5289679520851125,-0.2543708327429258,-0.3511683699730902,0.5930585546667949,-0.0125999174304892,-0.0896387229335014,-0.2593034483091005,0.057817611553635,0.2921325256492588,0.0852310290996802,-0.0040722607284149,0.2732971805400865,0.2348265078135841,0.0182620366668876,0.1671737010894137,0.4043695630186192,-0.0034599957891312,-0.318365113037424,-0.0898531240927414,0.1772889016275064,788.1318681318681,800.2197802197802,798.2051282051282,790.5494505494506,791.7582417582418,961.7948717948718,-0.113525,0.03717,0.977417,4.104767,-6.452484,0.493469,1.0,1.0,1.0,1.0,1.0,70.0,,1721467271.266
0.5289679520851125,-0.2543708327429258,-0.3511683699730902,0.5930585546667949,-0.0125999174304892,-0.0896387229335014,-0.2593034483091005,0.057817611553635,0.2921325256492588,0.0852310290996802,-0.0040722607284149,0.2732971805400865,0.2348265078135841,0.0182620366668876,0.1671737010894137,0.4043695630186192,-0.0034599957891312,-0.318365113037424,-0.0898531240927414,0.1772889016275064,784.5054945054945,796.996336996337,796.996336996337,789.3406593406594,770.8058608058608,1261.978021978022,-0.113525,0.03717,0.977417,4.104767,-6.452484,0.493469,1.0,1.0,1.0,1.0,1.0,70.0,,1721467271.266
0.5289679520851125,-0.2543708327429258,-0.3511683699730902,0.5930585546667949,-0.0125999174304892,-0.0896387229335014,-0.2593034483091005,0.057817611553635,0.2921325256492588,0.0852310290996802,-0.0040722607284149,0.2732971805400865,0.2348265078135841,0.0182620366668876,0.1671737010894137,0.4043695630186192,-0.0034599957891312,-0.318365113037424,-0.0898531240927414,0.1772889016275064,781.2820512820513,787.3260073260074,786.5201465201466,787.7289377289378,800.6227106227107,1018.205128205128,-0.113525,0.03717,0.977417,4.104767,-6.452484,0.493469,1.0,1.0,1.0,1.0,1.0,70.0,,1721467271.267
0.5289679520851125,-0.2543708327429258,-0.3511683699730902,0.5930585546667949,-0.0125999174304892,-0.0896387229335014,-0.2593034483091005,0.057817611553635,0.2921325256492588,0.0852310290996802,-0.0040722607284149,0.2732971805400865,0.2348265078135841,0.0182620366668876,0.1671737010894137,0.4043695630186192,-0.0034599957891312,-0.318365113037424,-0.0898531240927414,0.1772889016275064,778.4615384615385,786.1172161172161,788.5347985347986,776.4468864468864,868.7179487179487,686.5934065934066,-0.113525,0.03717,0.977417,4.104767,-6.452484,0.493469,1.0,1.0,1.0,1.0,1.0,70.0,,1721467271.267
0.5289679520851125,-0.2543708327429258,-0.3511683699730902,0.5930585546667949,-0.0125999174304892,-0.0896387229335014,-0.2593034483091005,0.057817611553635,0.2921325256492588,0.0852310290996802,-0.0040722607284149,0.2732971805400865,0.2348265078135841,0.0182620366668876,0.1671737010894137,0.4043695630186192,-0.0034599957891312,-0.318365113037424,-0.0898531240927414,0.1772889016275064,784.9084249084249,792.1611721611722,798.2051282051282,772.014652014652,907.8021978021978,770.8058608058608,-0.113525,0.03717,0.977417,4.104767,-6.452484,0.493469,1.0,1.0,1.0,1.0,1.0,70.0,,1721467271.267
0.5289679520851125,-0.2543708327429258,-0.3511683699730902,0.5930585546667949,-0.0125999174304892,-0.0896387229335014,-0.2593034483091005,0.057817611553635,0.2921325256492588,0.0852310290996802,-0.0040722607284149,0.2732971805400865,0.2348265078135841,0.0182620366668876,0.1671737010894137,0.4043695630186192,-0.0034599957891312,-0.318365113037424,-0.0898531240927414,0.1772889016275064,790.952380952381,794.5787545787546,799.4139194139194,791.7582417582418,974.6886446886448,975.0915750915752,-0.113525,0.03717,0.977417,4.104767,-6.452484,0.493469,1.0,1.0,1.0,1.0,1.0,70.0,,1721467271.268
0.5289679520851125,-0.2543708327429258,-0.3511683699730902,0.5930585546667949,-0.0125999174304892,-0.0896387229335014,-0.2593034483091005,0.057817611553635,0.2921325256492588,0.0852310290996802,-0.0040722607284149,0.2732971805400865,0.2348265078135841,0.0182620366668876,0.1671737010894137,0.4043695630186192,-0.0034599957891312,-0.318365113037424,-0.0898531240927414,0.1772889016275064,782.0879120879121,790.5494505494506,796.1904761904763,788.9377289377289,917.875457875458,850.1831501831502,-0.113525,0.03717,0.977417,4.104767,-6.452484,0.493469,1.0,1.0,1.0,1.0,1.0,70.0,,1721467271.268
0.5289679520851125,-0.2543708327429258,-0.3511683699730902,0.5930585546667949,-0.0125999174304892,-0.0896387229335014,-0.2593034483091005,0.057817611553635,0.2921325256492588,0.0852310290996802,-0.0040722607284149,0.2732971805400865,0.2348265078135841,0.0182620366668876,0.1671737010894137,0.4043695630186192,-0.0034599957891312,-0.318365113037424,-0.0898531240927414,0.1772889016275064,777.6556776556777,789.7435897435897,794.981684981685,778.4615384615385,792.5641025641025,587.4725274725275,-0.077698,0.020813,1.009644,4.441223,-5.637512,-0.209351,1.0,1.0,1.0,1.0,1.0,70.0,,1721467271.311
0.5131668134708491,-0.2471859239672129,-0.2431939168198847,0.6128979312847282,-0.0182433203809638,-0.0947376332508725,-0.2803766934594756,0.0234047103629354,0.2814477214529698,0.1168120480882361,-0.0040722607284149,0.2534717789293417,0.1829216982240697,-0.0070515847610603,0.1591297640464279,0.3827358074919932,-0.002505215231769,-0.3106866995908399,-0.0973730427296026,0.1704578378253326,783.6996336996338,794.981684981685,798.6080586080586,786.1172161172161,729.3040293040293,856.6300366300367,-0.077698,0.020813,1.009644,4.441223,-5.637512,-0.209351,1.0,1.0,1.0,1.0,1.0,70.0,,1721467271.312
0.5131668134708491,-0.2471859239672129,-0.2431939168198847,0.6128979312847282,-0.0182433203809638,-0.0947376332508725,-0.2803766934594756,0.0234047103629354,0.2814477214529698,0.1168120480882361,-0.0040722607284149,0.2534717789293417,0.1829216982240697,-0.0070515847610603,0.1591297640464279,0.3827358074919932,-0.002505215231769,-0.3106866995908399,-0.0973730427296026,0.1704578378253326,786.5201465201466,795.3846153846154,799.0109890109891,787.3260073260074,744.2124542124542,915.0549450549452,-0.077698,0.020813,1.009644,4.441223,-5.637512,-0.209351,1.0,1.0,1.0,1.0,1.0,70.0,,1721467271.313
0.5131668134708491,-0.2471859239672129,-0.2431939168198847,0.6128979312847282,-0.0182433203809638,-0.0947376332508725,-0.2803766934594756,0.0234047103629354,0.2814477214529698,0.1168120480882361,-0.0040722607284149,0.2534717789293417,0.1829216982240697,-0.0070515847610603,0.1591297640464279,0.3827358074919932,-0.002505215231769,-0.3106866995908399,-0.0973730427296026,0.1704578378253326,796.1904761904763,793.7728937728938,799.0109890109891,779.2673992673992,823.5897435897436,755.4945054945055,-0.077698,0.020813,1.009644,4.441223,-5.637512,-0.209351,1.0,1.0,1.0,1.0,1.0,70.0,,1721467271.313
0.5131668134708491,-0.2471859239672129,-0.2431939168198847,0.6128979312847282,-0.0182433203809638,-0.0947376332508725,-0.2803766934594756,0.0234047103629354,0.2814477214529698,0.1168120480882361,-0.0040722607284149,0.2534717789293417,0.1829216982240697,-0.0070515847610603,0.1591297640464279,0.3827358074919932,-0.002505215231769,-0.3106866995908399,-0.0973730427296026,0.1704578378253326,795.3846153846154,791.7582417582418,795.3846153846154,783.6996336996338,814.3223443223443,681.7582417582418,-0.077698,0.020813,1.009644,4.441223,-5.637512,-0.209351,1.0,1.0,1.0,1.0,1.0,70.0,,1721467271.314
0.5131668134708491,-0.2471859239672129,-0.2431939168198847,0.6128979312847282,-0.0182433203809638,-0.0947376332508725,-0.2803766934594756,0.0234047103629354,0.2814477214529698,0.1168120480882361,-0.0040722607284149,0.2534717789293417,0.1829216982240697,-0.0070515847610603,0.1591297640464279,0.3827358074919932,-0.002505215231769,-0.3106866995908399,-0.0973730427296026,0.1704578378253326,786.9230769230769,790.952380952381,791.3553113553114,784.5054945054945,767.5824175824176,939.2307692307692,-0.077698,0.020813,1.009644,4.441223,-5.637512,-0.209351,1.0,1.0,1.0,1.0,1.0,70.0,,1721467271.314
0.5131668134708491,-0.2471859239672129,-0.2431939168198847,0.6128979312847282,-0.0182433203809638,-0.0947376332508725,-0.2803766934594756,0.0234047103629354,0.2814477214529698,0.1168120480882361,-0.0040722607284149,0.2534717789293417,0.1829216982240697,-0.0070515847610603,0.1591297640464279,0.3827358074919932,-0.002505215231769,-0.3106866995908399,-0.0973730427296026,0.1704578378253326,790.952380952381,790.1465201465202,798.2051282051282,778.0586080586081,735.3479853479854,1159.6336996337,-0.077698,0.020813,1.009644,4.441223,-5.637512,-0.209351,1.0,1.0,1.0,1.0,1.0,70.0,,1721467271.315
0.5131668134708491,-0.2471859239672129,-0.2431939168198847,0.6128979312847282,-0.0182433203809638,-0.0947376332508725,-0.2803766934594756,0.0234047103629354,0.2814477214529698,0.1168120480882361,-0.0040722607284149,0.2534717789293417,0.1829216982240697,-0.0070515847610603,0.1591297640464279,0.3827358074919932,-0.002505215231769,-0.3106866995908399,-0.0973730427296026,0.1704578378253326,793.3699633699634,791.7582417582418,799.8168498168499,784.9084249084249,777.2527472527473,1089.92673992674,-0.077698,0.020813,1.009644,4.441223,-5.637512,-0.209351,1.0,1.0,1.0,1.0,1.0,70.0,,1721467271.315
0.5131668134708491,-0.2471859239672129,-0.2431939168198847,0.6128979312847282,-0.0182433203809638,-0.0947376332508725,-0.2803766934594756,0.0234047103629354,0.2814477214529698,0.1168120480882361,-0.0040722607284149,0.2534717789293417,0.1829216982240697,-0.0070515847610603,0.1591297640464279,0.3827358074919932,-0.002505215231769,-0.3106866995908399,-0.0973730427296026,0.1704578378253326,790.5494505494506,794.981684981685,798.6080586080586,786.5201465201466,843.7362637362637,735.3479853479854,-0.077698,0.020813,1.009644,4.441223,-5.637512,-0.209351,1.0,1.0,1.0,1.0,1.0,70.0,,1721467271.315
0.5131668134708491,-0.2471859239672129,-0.2431939168198847,0.6128979312847282,-0.0182433203809638,-0.0947376332508725,-0.2803766934594756,0.0234047103629354,0.2814477214529698,0.1168120480882361,-0.0040722607284149,0.2534717789293417,0.1829216982240697,-0.0070515847610603,0.1591297640464279,0.3827358074919932,-0.002505215231769,-0.3106866995908399,-0.0973730427296026,0.1704578378253326,787.7289377289378,792.5641025641025,796.996336996337,778.0586080586081,833.2600732600733,655.1648351648352,-0.077698,0.020813,1.009644,4.441223,-5.637512,-0.209351,1.0,1.0,1.0,1.0,1.0,70.0,,1721467271.316
0.5131668134708491,-0.2471859239672129,-0.2431939168198847,0.6128979312847282,-0.0182433203809638,-0.0947376332508725,-0.2803766934594756,0.0234047103629354,0.2814477214529698,0.1168120480882361,-0.0040722607284149,0.2534717789293417,0.1829216982240697,-0.0070515847610603,0.1591297640464279,0.3827358074919932,-0.002505215231769,-0.3106866995908399,-0.0973730427296026,0.1704578378253326,785.3113553113553,790.952380952381,794.981684981685,782.0879120879121,789.7435897435897,742.6007326007326,-0.077698,0.020813,1.009644,4.441223,-5.637512,-0.209351,1.0,1.0,1.0,1.0,1.0,70.0,,1721467271.316
0.5131668134708491,-0.2471859239672129,-0.2431939168198847,0.6128979312847282,-0.0182433203809638,-0.0947376332508725,-0.2803766934594756,0.0234047103629354,0.2814477214529698,0.1168120480882361,-0.0040722607284149,0.2534717789293417,0.1829216982240697,-0.0070515847610603,0.1591297640464279,0.3827358074919932,-0.002505215231769,-0.3106866995908399,-0.0973730427296026,0.1704578378253326,787.3260073260074,796.1904761904763,796.1904761904763,789.7435897435897,774.4322344322345,670.0732600732601,-0.077698,0.020813,1.009644,4.441223,-5.637512,-0.209351,1.0,1.0,1.0,1.0,1.0,70.0,,1721467271.316
0.5131668134708491,-0.2471859239672129,-0.2431939168198847,0.6128979312847282,-0.0182433203809638,-0.0947376332508725,-0.2803766934594756,0.0234047103629354,0.2814477214529698,0.1168120480882361,-0.0040722607284149,0.2534717789293417,0.1829216982240697,-0.0070515847610603,0.1591297640464279,0.3827358074919932,-0.002505215231769,-0.3106866995908399,-0.0973730427296026,0.1704578378253326,788.5347985347986,799.0109890109891,797.3992673992674,791.3553113553114,761.5384615384615,606.8131868131868,-0.061768,0.024597,1.00293,4.9646,-4.112244,1.495361,1.0,1.0,1.0,1.0,1.0,70.0,,1721467271.36
0.5131668134708491,-0.2471859239672129,-0.2431939168198847,0.6128979312847282,-0.0182433203809638,-0.0947376332508725,-0.2803766934594756,0.0234047103629354,0.2814477214529698,0.1168120480882361,-0.0040722607284149,0.2534717789293417,0.1829216982240697,-0.0070515847610603,0.1591297640464279,0.3827358074919932,-0.002505215231769,-0.3106866995908399,-0.0973730427296026,0.1704578378253326,793.3699633699634,798.2051282051282,797.8021978021978,801.4285714285714,729.7069597069598,627.3626373626374,-0.061768,0.024597,1.00293,4.9646,-4.112244,1.495361,1.0,1.0,1.0,1.0,1.0,70.0,,1721467271.361
0.5131668134708491,-0.2471859239672129,-0.2431939168198847,0.6128979312847282,-0.0182433203809638,-0.0947376332508725,-0.2803766934594756,0.0234047103629354,0.2814477214529698,0.1168120480882361,-0.0040722607284149,0.2534717789293417,0.1829216982240697,-0.0070515847610603,0.1591297640464279,0.3827358074919932,-0.002505215231769,-0.3106866995908399,-0.0973730427296026,0.1704578378253326,790.5494505494506,790.5494505494506,797.3992673992674,795.7875457875458,722.4542124542124,692.2344322344322,-0.061768,0.024597,1.00293,4.9646,-4.112244,1.495361,1.0,1.0,1.0,1.0,1.0,70.0,,1721467271.361
0.5131668134708491,-0.2471859239672129,-0.2431939168198847,0.6128979312847282,-0.0182433203809638,-0.0947376332508725,-0.2803766934594756,0.0234047103629354,0.2814477214529698,0.1168120480882361,-0.0040722607284149,0.2534717789293417,0.1829216982240697,-0.0070515847610603,0.1591297640464279,0.3827358074919932,-0.002505215231769,-0.3106866995908399,-0.0973730427296026,0.1704578378253326,785.3113553113553,789.3406593406594,793.3699633699634,786.5201465201466,763.1501831501831,694.6520146520147,-0.061768,0.024597,1.00293,4.9646,-4.112244,1.495361,1.0,1.0,1.0,1.0,1.0,70.0,,1721467271.362
0.5131668134708491,-0.2471859239672129,-0.2431939168198847,0.6128979312847282,-0.0182433203809638,-0.0947376332508725,-0.2803766934594756,0.0234047103629354,0.2814477214529698,0.1168120480882361,-0.0040722607284149,0.2534717789293417,0.1829216982240697,-0.0070515847610603,0.1591297640464279,0.3827358074919932,-0.002505215231769,-0.3106866995908399,-0.0973730427296026,0.1704578378253326,791.3553113553114,796.5934065934066,791.7582417582418,784.5054945054945,780.8791208791209,587.4725274725275,-0.061768,0.024597,1.00293,4.9646,-4.112244,1.495361,1.0,1.0,1.0,1.0,1.0,70.0,,1721467271.362
0.5131668134708491,-0.2471859239672129,-0.2431939168198847,0.6128979312847282,-0.0182433203809638,-0.0947376332508725,-0.2803766934594756,0.0234047103629354,0.2814477214529698,0.1168120480882361,-0.0040722607284149,0.2534717789293417,0.1829216982240697,-0.0070515847610603,0.1591297640464279,0.3827358074919932,-0.002505215231769,-0.3106866995908399,-0.0973730427296026,0.1704578378253326,790.5494505494506,796.5934065934066,802.2344322344322,789.7435897435897,736.5567765567765,933.992673992674,-0.061768,0.024597,1.00293,4.9646,-4.112244,1.495361,1.0,1.0,1.0,1.0,1.0,70.0,,1721467271.363
0.5131668134708491,-0.2471859239672129,-0.2431939168198847,0.6128979312847282,-0.0182433203809638,-0.0947376332508725,-0.2803766934594756,0.0234047103629354,0.2814477214529698,0.1168120480882361,-0.0040722607284149,0.2534717789293417,0.1829216982240697,-0.0070515847610603,0.1591297640464279,0.3827358074919932,-0.002505215231769,-0.3106866995908399,-0.0973730427296026,0.1704578378253326,790.5494505494506,791.3553113553114,804.2490842490843,808.6813186813187,691.8315018315019,1217.655677655678,-0.061768,0.024597,1.00293,4.9646,-4.112244,1.495361,1.0,1.0,1.0,1.0,1.0,70.0,,1721467271.363
0.5131668134708491,-0.2471859239672129,-0.2431939168198847,0.6128979312847282,-0.0182433203809638,-0.0947376332508725,-0.2803766934594756,0.0234047103629354,0.2814477214529698,0.1168120480882361,-0.0040722607284149,0.2534717789293417,0.1829216982240697,-0.0070515847610603,0.1591297640464279,0.3827358074919932,-0.002505215231769,-0.3106866995908399,-0.0973730427296026,0.1704578378253326,796.5934065934066,791.7582417582418,796.5934065934066,804.6520146520147,758.3150183150184,850.989010989011,-0.061768,0.024597,1.00293,4.9646,-4.112244,1.495361,1.0,1.0,1.0,1.0,1.0,70.0,,1721467271.363
0.5131668134708491,-0.2471859239672129,-0.2431939168198847,0.6128979312847282,-0.0182433203809638,-0.0947376332508725,-0.2803766934594756,0.0234047103629354,0.2814477214529698,0.1168120480882361,-0.0040722607284149,0.2534717789293417,0.1829216982240697,-0.0070515847610603,0.1591297640464279,0.3827358074919932,-0.002505215231769,-0.3106866995908399,-0.0973730427296026,0.1704578378253326,802.2344322344322,793.7728937728938,792.1611721611722,792.967032967033,797.8021978021978,554.0293040293041,-0.061768,0.024597,1.00293,4.9646,-4.112244,1.495361,1.0,1.0,1.0,1.0,1.0,70.0,,1721467271.364
0.5131668134708491,-0.2471859239672129,-0.2431939168198847,0.6128979312847282,-0.0182433203809638,-0.0947376332508725,-0.2803766934594756,0.0234047103629354,0.2814477214529698,0.1168120480882361,-0.0040722607284149,0.2534717789293417,0.1829216982240697,-0.0070515847610603,0.1591297640464279,0.3827358074919932,-0.002505215231769,-0.3106866995908399,-0.0973730427296026,0.1704578378253326,805.8608058608058,792.967032967033,791.3553113553114,789.7435897435897,724.0659340659341,772.4175824175825,-0.061768,0.024597,1.00293,4.9646,-4.112244,1.495361,1.0,1.0,1.0,1.0,1.0,70.0,,1721467271.364
0.5131668134708491,-0.2471859239672129,-0.2431939168198847,0.6128979312847282,-0.0182433203809638,-0.0947376332508725,-0.2803766934594756,0.0234047103629354,0.2814477214529698,0.1168120480882361,-0.0040722607284149,0.2534717789293417,0.1829216982240697,-0.0070515847610603,0.1591297640464279,0.3827358074919932,-0.002505215231769,-0.3106866995908399,-0.0973730427296026,0.1704578378253326,803.040293040293,794.1758241758242,789.7435897435897,787.7289377289378,796.1904761904763,873.5531135531136,-0.061768,0.024597,1.00293,4.9646,-4.112244,1.495361,1.0,1.0,1.0,1.0,1.0,70.0,,1721467271.364
0.5131668134708491,-0.2471859239672129,-0.2431939168198847,0.6128979312847282,-0.0182433203809638,-0.0947376332508725,-0.2803766934594756,0.0234047103629354,0.2814477214529698,0.1168120480882361,-0.0040722607284149,0.2534717789293417,0.1829216982240697,-0.0070515847610603,0.1591297640464279,0.3827358074919932,-0.002505215231769,-0.3106866995908399,-0.0973730427296026,0.1704578378253326,799.8168498168499,801.025641025641,795.3846153846154,801.4285714285714,898.9377289377289,766.7765567765568,-0.061768,0.024597,1.00293,4.9646,-4.112244,1.495361,1.0,1.0,1.0,1.0,1.0,70.0,,1721467271.365
0.5131668134708491,-0.2471859239672129,-0.2431939168198847,0.6128979312847282,-0.0182433203809638,-0.0947376332508725,-0.2803766934594756,0.0234047103629354,0.2814477214529698,0.1168120480882361,-0.0040722607284149,0.2534717789293417,0.1829216982240697,-0.0070515847610603,0.1591297640464279,0.3827358074919932,-0.002505215231769,-0.3106866995908399,-0.0973730427296026,0.1704578378253326,791.3553113553114,801.025641025641,796.996336996337,804.6520146520147,868.3150183150184,761.941391941392,-0.055969,0.037292,1.015625,3.02063,-1.727142,3.970184,1.0,1.0,1.0,1.0,1.0,70.0,,1721467271.408
0.5131668134708491,-0.2471859239672129,-0.2431939168198847,0.6128979312847282,-0.0182433203809638,-0.0947376332508725,-0.2803766934594756,0.0234047103629354,0.2814477214529698,0.1168120480882361,-0.0040722607284149,0.2534717789293417,0.1829216982240697,-0.0070515847610603,0.1591297640464279,0.3827358074919932,-0.002505215231769,-0.3106866995908399,-0.0973730427296026,0.1704578378253326,785.3113553113553,799.8168498168499,790.5494505494506,797.8021978021978,829.6336996336996,1043.186813186813,-0.055969,0.037292,1.015625,3.02063,-1.727142,3.970184,1.0,1.0,1.0,1.0,1.0,70.0,,1721467271.409
0.5131668134708491,-0.2471859239672129,-0.2431939168198847,0.6128979312847282,-0.0182433203809638,-0.0947376332508725,-0.2803766934594756,0.0234047103629354,0.2814477214529698,0.1168120480882361,-0.0040722607284149,0.2534717789293417,0.1829216982240697,-0.0070515847610603,0.1591297640464279,0.3827358074919932,-0.002505215231769,-0.3106866995908399,-0.0973730427296026,0.1704578378253326,785.7142857142858,797.8021978021978,783.6996336996338,797.3992673992674,878.7912087912089,1033.516483516484,-0.055969,0.037292,1.015625,3.02063,-1.727142,3.970184,1.0,1.0,1.0,1.0,1.0,70.0,,1721467271.409
0.5022721273279065,-0.2479139279019347,-0.1422556170621415,0.6327303094106489,-0.011676537221295,-0.1108515885440522,-0.2892916103063448,-0.0016790620528036,0.2667844304925248,0.1631325003225255,-0.0040722607284149,0.2516933782064615,0.1279764288688727,-0.0324192054877592,0.143459873335934,0.362508017859871,0.002059569854875,-0.2975986256593794,-0.1070369605376123,0.1729133603502301,783.2967032967033,796.996336996337,786.9230769230769,792.5641025641025,900.952380952381,798.6080586080586,-0.055969,0.037292,1.015625,3.02063,-1.727142,3.970184,1.0,1.0,1.0,1.0,1.0,70.0,,1721467271.409
0.5022721273279065,-0.2479139279019347,-0.1422556170621415,0.6327303094106489,-0.011676537221295,-0.1108515885440522,-0.2892916103063448,-0.0016790620528036,0.2667844304925248,0.1631325003225255,-0.0040722607284149,0.2516933782064615,0.1279764288688727,-0.0324192054877592,0.143459873335934,0.362508017859871,0.002059569854875,-0.2975986256593794,-0.1070369605376123,0.1729133603502301,788.9377289377289,799.0109890109891,793.3699633699634,792.5641025641025,822.3809523809524,637.8388278388279,-0.055969,0.037292,1.015625,3.02063,-1.727142,3.970184,1.0,1.0,1.0,1.0,1.0,70.0,,1721467271.411
0.5022721273279065,-0.2479139279019347,-0.1422556170621415,0.6327303094106489,-0.011676537221295,-0.1108515885440522,-0.2892916103063448,-0.0016790620528036,0.2667844304925248,0.1631325003225255,-0.0040722607284149,0.2516933782064615,0.1279764288688727,-0.0324192054877592,0.143459873335934,0.362508017859871,0.002059569854875,-0.2975986256593794,-0.1070369605376123,0.1729133603502301,788.1318681318681,795.3846153846154,791.7582417582418,791.3553113553114,748.6446886446887,955.7509157509156,-0.055969,0.037292,1.015625,3.02063,-1.727142,3.970184,1.0,1.0,1.0,1.0,1.0,70.0,,1721467271.411
0.5022721273279065,-0.2479139279019347,-0.1422556170621415,0.6327303094106489,-0.011676537221295,-0.1108515885440522,-0.2892916103063448,-0.0016790620528036,0.2667844304925248,0.1631325003225255,-0.0040722607284149,0.2516933782064615,0.1279764288688727,-0.0324192054877592,0.143459873335934,0.362508017859871,0.002059569854875,-0.2975986256593794,-0.1070369605376123,0.1729133603502301,778.4615384615385,791.3553113553114,784.5054945054945,786.9230769230769,714.3956043956044,1078.644688644689,-0.055969,0.037292,1.015625,3.02063,-1.727142,3.970184,1.0,1.0,1.0,1.0,1.0,70.0,,1721467271.411
0.5022721273279065,-0.2479139279019347,-0.1422556170621415,0.6327303094106489,-0.011676537221295,-0.1108515885440522,-0.2892916103063448,-0.0016790620528036,0.2667844304925248,0.1631325003225255,-0.0040722607284149,0.2516933782064615,0.1279764288688727,-0.0324192054877592,0.143459873335934,0.362508017859871,0.002059569854875,-0.2975986256593794,-0.1070369605376123,0.1729133603502301,780.4761904761905,794.1758241758242,782.0879120879121,787.3260073260074,706.3369963369963,713.5897435897436,-0.055969,0.037292,1.015625,3.02063,-1.727142,3.970184,1.0,1.0,1.0,1.0,1.0,70.0,,1721467271.412
0.5022721273279065,-0.2479139279019347,-0.1422556170621415,0.6327303094106489,-0.011676537221295,-0.1108515885440522,-0.2892916103063448,-0.0016790620528036,0.2667844304925248,0.1631325003225255,-0.0040722607284149,0.2516933782064615,0.1279764288688727,-0.0324192054877592,0.143459873335934,0.362508017859871,0.002059569854875,-0.2975986256593794,-0.1070369605376123,0.1729133603502301,782.4908424908425,792.967032967033,783.6996336996338,780.4761904761905,747.032967032967,563.6996336996338,-0.055969,0.037292,1.015625,3.02063,-1.727142,3.970184,1.0,1.0,1.0,1.0,1.0,70.0,,1721467271.412
0.5022721273279065,-0.2479139279019347,-0.1422556170621415,0.6327303094106489,-0.011676537221295,-0.1108515885440522,-0.2892916103063448,-0.0016790620528036,0.2667844304925248,0.1631325003225255,-0.0040722607284149,0.2516933782064615,0.1279764288688727,-0.0324192054877592,0.143459873335934,0.362508017859871,0.002059569854875,-0.2975986256593794,-0.1070369605376123,0.1729133603502301,783.2967032967033,790.5494505494506,785.3113553113553,784.5054945054945,739.3772893772893,619.3040293040293,-0.055969,0.037292,1.015625,3.02063,-1.727142,3.970184,1.0,1.0,1.0,1.0,1.0,70.0,,1721467271.412
0.5022721273279065,-0.2479139279019347,-0.1422556170621415,0.6327303094106489,-0.011676537221295,-0.1108515885440522,-0.2892916103063448,-0.0016790620528036,0.2667844304925248,0.1631325003225255,-0.0040722607284149,0.2516933782064615,0.1279764288688727,-0.0324192054877592,0.143459873335934,0.362508017859871,0.002059569854875,-0.2975986256593794,-0.1070369605376123,0.1729133603502301,788.1318681318681,796.996336996337,795.3846153846154,801.8315018315019,803.4432234432235,700.6959706959707,-0.055969,0.037292,1.015625,3.02063,-1.727142,3.970184,1.0,1.0,1.0,1.0,1.0,70.0,,1721467271.413
0.5022721273279065,-0.2479139279019347,-0.1422556170621415,0.6327303094106489,-0.011676537221295,-0.1108515885440522,-0.2892916103063448,-0.0016790620528036,0.2667844304925248,0.1631325003225255,-0.0040722607284149,0.2516933782064615,0.1279764288688727,-0.0324192054877592,0.143459873335934,0.362508017859871,0.002059569854875,-0.2975986256593794,-0.1070369605376123,0.1729133603502301,786.1172161172161,798.2051282051282,796.1904761904763,794.5787545787546,849.7802197802198,811.9047619047619,-0.055969,0.037292,1.015625,3.02063,-1.727142,3.970184,1.0,1.0,1.0,1.0,1.0,70.0,,1721467271.413
0.5022721273279065,-0.2479139279019347,-0.1422556170621415,0.6327303094106489,-0.011676537221295,-0.1108515885440522,-0.2892916103063448,-0.0016790620528036,0.2667844304925248,0.1631325003225255,-0.0040722607284149,0.2516933782064615,0.1279764288688727,-0.0324192054877592,0.143459873335934,0.362508017859871,0.002059569854875,-0.2975986256593794,-0.1070369605376123,0.1729133603502301,781.6849816849817,790.952380952381,788.1318681318681,778.4615384615385,806.6666666666667,758.7179487179487,-0.048401,0.044739,1.013855,2.699127,1.166382,5.921631,1.0,1.0,1.0,1.0,1.0,70.0,,1721467271.457
0.5022721273279065,-0.2479139279019347,-0.1422556170621415,0.6327303094106489,-0.011676537221295,-0.1108515885440522,-0.2892916103063448,-0.0016790620528036,0.2667844304925248,0.1631325003225255,-0.0040722607284149,0.2516933782064615,0.1279764288688727,-0.0324192054877592,0.143459873335934,0.362508017859871,0.002059569854875,-0.2975986256593794,-0.1070369605376123,0.1729133603502301,778.8644688644689,788.5347985347986,786.1172161172161,780.4761904761905,788.9377289377289,645.0915750915751,-0.048401,0.044739,1.013855,2.699127,1.166382,5.921631,1.0,1.0,1.0,1.0,1.0,70.0,,1721467271.458
0.5022721273279065,-0.2479139279019347,-0.1422556170621415,0.6327303094106489,-0.011676537221295,-0.1108515885440522,-0.2892916103063448,-0.0016790620528036,0.2667844304925248,0.1631325003225255,-0.0040722607284149,0.2516933782064615,0.1279764288688727,-0.0324192054877592,0.143459873335934,0.362508017859871,0.002059569854875,-0.2975986256593794,-0.1070369605376123,0.1729133603502301,778.8644688644689,794.981684981685,793.7728937728938,791.7582417582418,786.9230769230769,697.4725274725275,-0.048401,0.044739,1.013855,2.699127,1.166382,5.921631,1.0,1.0,1.0,1.0,1.0,70.0,,1721467271.458
0.5022721273279065,-0.2479139279019347,-0.1422556170621415,0.6327303094106489,-0.011676537221295,-0.1108515885440522,-0.2892916103063448,-0.0016790620528036,0.2667844304925248,0.1631325003225255,-0.0040722607284149,0.2516933782064615,0.1279764288688727,-0.0324192054877592,0.143459873335934,0.362508017859871,0.002059569854875,-0.2975986256593794,-0.1070369605376123,0.1729133603502301,781.6849816849817,793.3699633699634,796.996336996337,792.5641025641025,777.2527472527473,664.0293040293041,-0.048401,0.044739,1.013855,2.699127,1.166382,5.921631,1.0,1.0,1.0,1.0,1.0,70.0,,1721467271.459
0.5022721273279065,-0.2479139279019347,-0.1422556170621415,0.6327303094106489,-0.011676537221295,-0.1108515885440522,-0.2892916103063448,-0.0016790620528036,0.2667844304925248,0.1631325003225255,-0.0040722607284149,0.2516933782064615,0.1279764288688727,-0.0324192054877592,0.143459873335934,0.362508017859871,0.002059569854875,-0.2975986256593794,-0.1070369605376123,0.1729133603502301,785.3113553113553,791.7582417582418,790.5494505494506,776.4468864468864,722.4542124542124,476.6666666666667,-0.048401,0.044739,1.013855,2.699127,1.166382,5.921631,1.0,1.0,1.0,1.0,1.0,70.0,,1721467271.459
0.5022721273279065,-0.2479139279019347,-0.1422556170621415,0.6327303094106489,-0.011676537221295,-0.1108515885440522,-0.2892916103063448,-0.0016790620528036,0.2667844304925248,0.1631325003225255,-0.0040722607284149,0.2516933782064615,0.1279764288688727,-0.0324192054877592,0.143459873335934,0.362508017859871,0.002059569854875,-0.2975986256593794,-0.1070369605376123,0.1729133603502301,780.0732600732601,794.1758241758242,790.1465201465202,774.4322344322345,676.1172161172161,767.1794871794872,-0.048401,0.044739,1.013855,2.699127,1.166382,5.921631,1.0,1.0,1.0,1.0,1.0,70.0,,1721467271.459
0.5022721273279065,-0.2479139279019347,-0.1422556170621415,0.6327303094106489,-0.011676537221295,-0.1108515885440522,-0.2892916103063448,-0.0016790620528036,0.2667844304925248,0.1631325003225255,-0.0040722607284149,0.2516933782064615,0.1279764288688727,-0.0324192054877592,0.143459873335934,0.362508017859871,0.002059569854875,-0.2975986256593794,-0.1070369605376123,0.1729133603502301,782.893772893773,795.3846153846154,792.967032967033,789.3406593406594,706.3369963369963,1056.080586080586,-0.048401,0.044739,1.013855,2.699127,1.166382,5.921631,1.0,1.0,1.0,1.0,1.0,70.0,,1721467271.46
0.5022721273279065,-0.2479139279019347,-0.1422556170621415,0.6327303094106489,-0.011676537221295,-0.1108515885440522,-0.2892916103063448,-0.0016790620528036,0.2667844304925248,0.1631325003225255,-0.0040722607284149,0.2516933782064615,0.1279764288688727,-0.0324192054877592,0.143459873335934,0.362508017859871,0.002059569854875,-0.2975986256593794,-0.1070369605376123,0.1729133603502301,790.5494505494506,796.1904761904763,789.7435897435897,789.3406593406594,819.5604395604396,886.8498168498169,-0.048401,0.044739,1.013855,2.699127,1.166382,5.921631,1.0,1.0,1.0,1.0,1.0,70.0,,1721467271.46
0.5022721273279065,-0.2479139279019347,-0.1422556170621415,0.6327303094106489,-0.011676537221295,-0.1108515885440522,-0.2892916103063448,-0.0016790620528036,0.2667844304925248,0.1631325003225255,-0.0040722607284149,0.2516933782064615,0.1279764288688727,-0.0324192054877592,0.143459873335934,0.362508017859871,0.002059569854875,-0.2975986256593794,-0.1070369605376123,0.1729133603502301,792.1611721611722,792.967032967033,788.9377289377289,783.2967032967033,826.4102564102565,643.0769230769231,-0.048401,0.044739,1.013855,2.699127,1.166382,5.921631,1.0,1.0,1.0,1.0,1.0,70.0,,1721467271.46
0.5022721273279065,-0.2479139279019347,-0.1422556170621415,0.6327303094106489,-0.011676537221295,-0.1108515885440522,-0.2892916103063448,-0.0016790620528036,0.2667844304925248,0.1631325003225255,-0.0040722607284149,0.2516933782064615,0.1279764288688727,-0.0324192054877592,0.143459873335934,0.362508017859871,0.002059569854875,-0.2975986256593794,-0.1070369605376123,0.1729133603502301,785.3113553113553,787.3260073260074,789.3406593406594,783.2967032967033,694.6520146520147,562.0879120879121,-0.048401,0.044739,1.013855,2.699127,1.166382,5.921631,1.0,1.0,1.0,1.0,1.0,70.0,,1721467271.461
0.5022721273279065,-0.2479139279019347,-0.1422556170621415,0.6327303094106489,-0.011676537221295,-0.1108515885440522,-0.2892916103063448,-0.0016790620528036,0.2667844304925248,0.1631325003225255,-0.0040722607284149,0.2516933782064615,0.1279764288688727,-0.0324192054877592,0.143459873335934,0.362508017859871,0.002059569854875,-0.2975986256593794,-0.1070369605376123,0.1729133603502301,781.2820512820513,787.7289377289378,792.5641025641025,786.5201465201466,738.1684981684982,648.3150183150183,-0.048401,0.044739,1.013855,2.699127,1.166382,5.921631,1.0,1.0,1.0,1.0,1.0,70.0,,1721467271.461
0.5022721273279065,-0.2479139279019347,-0.1422556170621415,0.6327303094106489,-0.011676537221295,-0.1108515885440522,-0.2892916103063448,-0.0016790620528036,0.2667844304925248,0.1631325003225255,-0.0040722607284149,0.2516933782064615,0.1279764288688727,-0.0324192054877592,0.143459873335934,0.362508017859871,0.002059569854875,-0.2975986256593794,-0.1070369605376123,0.1729133603502301,782.0879120879121,788.9377289377289,796.996336996337,785.7142857142858,815.934065934066,671.6849816849817,-0.048401,0.044739,1.013855,2.699127,1.166382,5.921631,1.0,1.0,1.0,1.0,1.0,70.0,,1721467271.462
0.5022721273279065,-0.2479139279019347,-0.1422556170621415,0.6327303094106489,-0.011676537221295,-0.1108515885440522,-0.2892916103063448,-0.0016790620528036,0.2667844304925248,0.1631325003225255,-0.0040722607284149,0.2516933782064615,0.1279764288688727,-0.0324192054877592,0.143459873335934,0.362508017859871,0.002059569854875,-0.2975986256593794,-0.1070369605376123,0.1729133603502301,783.2967032967033,790.1465201465202,798.2051282051282,788.9377289377289,817.5457875457876,635.0183150183151,-0.056824,0.054138,0.995422,1.413116,2.826233,4.63562,1.0,1.0,1.0,1.0,1.0,70.0,,1721467271.503
0.5022721273279065,-0.2479139279019347,-0.1422556170621415,0.6327303094106489,-0.011676537221295,-0.1108515885440522,-0.2892916103063448,-0.0016790620528036,0.2667844304925248,0.1631325003225255,-0.0040722607284149,0.2516933782064615,0.1279764288688727,-0.0324192054877592,0.143459873335934,0.362508017859871,0.002059569854875,-0.2975986256593794,-0.1070369605376123,0.1729133603502301,792.967032967033,797.8021978021978,805.4578754578755,800.2197802197802,813.5164835164835,954.5421245421246,-0.056824,0.054138,0.995422,1.413116,2.826233,4.63562,1.0,1.0,1.0,1.0,1.0,70.0,,1721467271.504
0.5022721273279065,-0.2479139279019347,-0.1422556170621415,0.6327303094106489,-0.011676537221295,-0.1108515885440522,-0.2892916103063448,-0.0016790620528036,0.2667844304925248,0.1631325003225255,-0.0040722607284149,0.2516933782064615,0.1279764288688727,-0.0324192054877592,0.143459873335934,0.362508017859871,0.002059569854875,-0.2975986256593794,-0.1070369605376123,0.1729133603502301,796.996336996337,799.0109890109891,802.2344322344322,803.040293040293,811.0989010989011,1078.644688644689,-0.056824,0.054138,0.995422,1.413116,2.826233,4.63562,1.0,1.0,1.0,1.0,1.0,70.0,,1721467271.504
0.5022721273279065,-0.2479139279019347,-0.1422556170621415,0.6327303094106489,-0.011676537221295,-0.1108515885440522,-0.2892916103063448,-0.0016790620528036,0.2667844304925248,0.1631325003225255,-0.0040722607284149,0.2516933782064615,0.1279764288688727,-0.0324192054877592,0.143459873335934,0.362508017859871,0.002059569854875,-0.2975986256593794,-0.1070369605376123,0.1729133603502301,790.5494505494506,796.996336996337,792.1611721611722,800.2197802197802,837.2893772893773,809.0842490842491,-0.056824,0.054138,0.995422,1.413116,2.826233,4.63562,1.0,1.0,1.0,1.0,1.0,70.0,,1721467271.505
0.5022721273279065,-0.2479139279019347,-0.1422556170621415,0.6327303094106489,-0.011676537221295,-0.1108515885440522,-0.2892916103063448,-0.0016790620528036,0.2667844304925248,0.1631325003225255,-0.0040722607284149,0.2516933782064615,0.1279764288688727,-0.0324192054877592,0.143459873335934,0.362508017859871,0.002059569854875,-0.2975986256593794,-0.1070369605376123,0.1729133603502301,788.1318681318681,793.7728937728938,785.7142857142858,796.5934065934066,755.0915750915751,475.8608058608059,-0.056824,0.054138,0.995422,1.413116,2.826233,4.63562,1.0,1.0,1.0,1.0,1.0,70.0,,1721467271.505
0.4967106495466284,-0.2510164791340075,-0.0692846398994466,0.648696983474673,0.0083674794018679,-0.1285163950682828,-0.2880007400754543,-0.0109026633658026,0.2515602079572318,0.2605393246876708,-0.0040722607284149,0.2371455927467213,0.0837320158883255,-0.0515017139322912,0.1215451143166231,0.3496831367845556,0.0077830822559719,-0.2844711489654741,-0.1175502810650788,0.1843019921017478,793.7728937728938,794.5787545787546,789.7435897435897,783.6996336996338,742.1978021978023,758.7179487179487,-0.056824,0.054138,0.995422,1.413116,2.826233,4.63562,1.0,1.0,1.0,1.0,1.0,70.0,,1721467271.505
0.4967106495466284,-0.2510164791340075,-0.0692846398994466,0.648696983474673,0.0083674794018679,-0.1285163950682828,-0.2880007400754543,-0.0109026633658026,0.2515602079572318,0.2605393246876708,-0.0040722607284149,0.2371455927467213,0.0837320158883255,-0.0515017139322912,0.1215451143166231,0.3496831367845556,0.0077830822559719,-0.2844711489654741,-0.1175502810650788,0.1843019921017478,796.5934065934066,800.2197802197802,799.4139194139194,785.7142857142858,687.3992673992674,1009.340659340659,-0.056824,0.054138,0.995422,1.413116,2.826233,4.63562,1.0,1.0,1.0,1.0,1.0,70.0,,1721467271.506
0.4967106495466284,-0.2510164791340075,-0.0692846398994466,0.648696983474673,0.0083674794018679,-0.1285163950682828,-0.2880007400754543,-0.0109026633658026,0.2515602079572318,0.2605393246876708,-0.0040722607284149,0.2371455927467213,0.0837320158883255,-0.0515017139322912,0.1215451143166231,0.3496831367845556,0.0077830822559719,-0.2844711489654741,-0.1175502810650788,0.1843019921017478,790.952380952381,793.3699633699634,793.3699633699634,793.7728937728938,431.9413919413919,560.4761904761905,-0.056824,0.054138,0.995422,1.413116,2.826233,4.63562,1.0,1.0,1.0,1.0,1.0,70.0,,1721467271.507
0.4967106495466284,-0.2510164791340075,-0.0692846398994466,0.648696983474673,0.0083674794018679,-0.1285163950682828,-0.2880007400754543,-0.0109026633658026,0.2515602079572318,0.2605393246876708,-0.0040722607284149,0.2371455927467213,0.0837320158883255,-0.0515017139322912,0.1215451143166231,0.3496831367845556,0.0077830822559719,-0.2844711489654741,-0.1175502810650788,0.1843019921017478,791.7582417582418,787.3260073260074,788.5347985347986,795.3846153846154,579.4139194139194,400.5128205128205,-0.056824,0.054138,0.995422,1.413116,2.826233,4.63562,1.0,1.0,1.0,1.0,1.0,70.0,,1721467271.507
0.4967106495466284,-0.2510164791340075,-0.0692846398994466,0.648696983474673,0.0083674794018679,-0.1285163950682828,-0.2880007400754543,-0.0109026633658026,0.2515602079572318,0.2605393246876708,-0.0040722607284149,0.2371455927467213,0.0837320158883255,-0.0515017139322912,0.1215451143166231,0.3496831367845556,0.0077830822559719,-0.2844711489654741,-0.1175502810650788,0.1843019921017478,804.2490842490843,798.6080586080586,792.5641025641025,806.6666666666667,809.0842490842491,625.3479853479854,-0.056824,0.054138,0.995422,1.413116,2.826233,4.63562,1.0,1.0,1.0,1.0,1.0,70.0,,1721467271.507
0.4967106495466284,-0.2510164791340075,-0.0692846398994466,0.648696983474673,0.0083674794018679,-0.1285163950682828,-0.2880007400754543,-0.0109026633658026,0.2515602079572318,0.2605393246876708,-0.0040722607284149,0.2371455927467213,0.0837320158883255,-0.0515017139322912,0.1215451143166231,0.3496831367845556,0.0077830822559719,-0.2844711489654741,-0.1175502810650788,0.1843019921017478,805.4578754578755,800.2197802197802,796.5934065934066,807.0695970695971,853.8095238095239,739.7802197802198,-0.056824,0.054138,0.995422,1.413116,2.826233,4.63562,1.0,1.0,1.0,1.0,1.0,70.0,,1721467271.508
0.4967106495466284,-0.2510164791340075,-0.0692846398994466,0.648696983474673,0.0083674794018679,-0.1285163950682828,-0.2880007400754543,-0.0109026633658026,0.2515602079572318,0.2605393246876708,-0.0040722607284149,0.2371455927467213,0.0837320158883255,-0.0515017139322912,0.1215451143166231,0.3496831367845556,0.0077830822559719,-0.2844711489654741,-0.1175502810650788,0.1843019921017478,800.6227106227107,794.981684981685,798.2051282051282,805.054945054945,829.2307692307693,701.9047619047619,-0.056824,0.054138,0.995422,1.413116,2.826233,4.63562,1.0,1.0,1.0,1.0,1.0,70.0,,1721467271.508
0.4967106495466284,-0.2510164791340075,-0.0692846398994466,0.648696983474673,0.0083674794018679,-0.1285163950682828,-0.2880007400754543,-0.0109026633658026,0.2515602079572318,0.2605393246876708,-0.0040722607284149,0.2371455927467213,0.0837320158883255,-0.0515017139322912,0.1215451143166231,0.3496831367845556,0.0077830822559719,-0.2844711489654741,-0.1175502810650788,0.1843019921017478,800.2197802197802,797.3992673992674,795.7875457875458,814.3223443223443,800.6227106227107,539.92673992674,-0.056824,0.054138,0.995422,1.413116,2.826233,4.63562,1.0,1.0,1.0,1.0,1.0,70.0,,1721467271.552
0.4967106495466284,-0.2510164791340075,-0.0692846398994466,0.648696983474673,0.0083674794018679,-0.1285163950682828,-0.2880007400754543,-0.0109026633658026,0.2515602079572318,0.2605393246876708,-0.0040722607284149,0.2371455927467213,0.0837320158883255,-0.0515017139322912,0.1215451143166231,0.3496831367845556,0.0077830822559719,-0.2844711489654741,-0.1175502810650788,0.1843019921017478,798.2051282051282,796.996336996337,788.1318681318681,817.5457875457876,838.901098901099,641.8681318681319,-0.056824,0.054138,0.995422,1.413116,2.826233,4.63562,1.0,1.0,1.0,1.0,1.0,70.0,,1721467271.552
0.4967106495466284,-0.2510164791340075,-0.0692846398994466,0.648696983474673,0.0083674794018679,-0.1285163950682828,-0.2880007400754543,-0.0109026633658026,0.2515602079572318,0.2605393246876708,-0.0040722607284149,0.2371455927467213,0.0837320158883255,-0.0515017139322912,0.1215451143166231,0.3496831367845556,0.0077830822559719,-0.2844711489654741,-0.1175502810650788,0.1843019921017478,793.3699633699634,799.8168498168499,790.5494505494506,795.3846153846154,838.4981684981685,740.989010989011,-0.056824,0.054138,0.995422,1.413116,2.826233,4.63562,1.0,1.0,1.0,1.0,1.0,70.0,,1721467271.553
0.4967106495466284,-0.2510164791340075,-0.0692846398994466,0.648696983474673,0.0083674794018679,-0.1285163950682828,-0.2880007400754543,-0.0109026633658026,0.2515602079572318,0.2605393246876708,-0.0040722607284149,0.2371455927467213,0.0837320158883255,-0.0515017139322912,0.1215451143166231,0.3496831367845556,0.0077830822559719,-0.2844711489654741,-0.1175502810650788,0.1843019921017478,798.6080586080586,805.4578754578755,793.7728937728938,781.2820512820513,871.5384615384615,763.1501831501831,-0.056824,0.054138,0.995422,1.413116,2.826233,4.63562,1.0,1.0,1.0,1.0,1.0,70.0,,1721467271.553
0.4967106495466284,-0.2510164791340075,-0.0692846398994466,0.648696983474673,0.0083674794018679,-0.1285163950682828,-0.2880007400754543,-0.0109026633658026,0.2515602079572318,0.2605393246876708,-0.0040722607284149,0.2371455927467213,0.0837320158883255,-0.0515017139322912,0.1215451143166231,0.3496831367845556,0.0077830822559719,-0.2844711489654741,-0.1175502810650788,0.1843019921017478,805.4578754578755,807.0695970695971,799.8168498168499,804.6520146520147,882.014652014652,978.7179487179488,-0.056824,0.054138,0.995422,1.413116,2.826233,4.63562,1.0,1.0,1.0,1.0,1.0,70.0,,1721467271.553
0.4967106495466284,-0.2510164791340075,-0.0692846398994466,0.648696983474673,0.0083674794018679,-0.1285163950682828,-0.2880007400754543,-0.0109026633658026,0.2515602079572318,0.2605393246876708,-0.0040722607284149,0.2371455927467213,0.0837320158883255,-0.0515017139322912,0.1215451143166231,0.3496831367845556,0.0077830822559719,-0.2844711489654741,-0.1175502810650788,0.1843019921017478,798.6080586080586,799.8168498168499,802.2344322344322,800.2197802197802,842.5274725274726,1143.113553113553,-0.056824,0.054138,0.995422,1.413116,2.826233,4.63562,1.0,1.0,1.0,1.0,1.0,70.0,,1721467271.554
0.4967106495466284,-0.2510164791340075,-0.0692846398994466,0.648696983474673,0.0083674794018679,-0.1285163950682828,-0.2880007400754543,-0.0109026633658026,0.2515602079572318,0.2605393246876708,-0.0040722607284149,0.2371455927467213,0.0837320158883255,-0.0515017139322912,0.1215451143166231,0.3496831367845556,0.0077830822559719,-0.2844711489654741,-0.1175502810650788,0.1843019921017478,795.3846153846154,793.7728937728938,796.1904761904763,780.8791208791209,859.8534798534798,1203.150183150183,-0.056824,0.054138,0.995422,1.413116,2.826233,4.63562,1.0,1.0,1.0,1.0,1.0,70.0,,1721467271.554
0.4967106495466284,-0.2510164791340075,-0.0692846398994466,0.648696983474673,0.0083674794018679,-0.1285163950682828,-0.2880007400754543,-0.0109026633658026,0.2515602079572318,0.2605393246876708,-0.0040722607284149,0.2371455927467213,0.0837320158883255,-0.0515017139322912,0.1215451143166231,0.3496831367845556,0.0077830822559719,-0.2844711489654741,-0.1175502810650788,0.1843019921017478,796.996336996337,792.967032967033,792.5641025641025,788.5347985347986,838.0952380952381,958.1684981684982,-0.056824,0.054138,0.995422,1.413116,2.826233,4.63562,1.0,1.0,1.0,1.0,1.0,70.0,,1721467271.554
0.4967106495466284,-0.2510164791340075,-0.0692846398994466,0.648696983474673,0.0083674794018679,-0.1285163950682828,-0.2880007400754543,-0.0109026633658026,0.2515602079572318,0.2605393246876708,-0.0040722607284149,0.2371455927467213,0.0837320158883255,-0.0515017139322912,0.1215451143166231,0.3496831367845556,0.0077830822559719,-0.2844711489654741,-0.1175502810650788,0.1843019921017478,791.3553113553114,790.1465201465202,786.9230769230769,792.1611721611722,819.1575091575091,581.025641025641,-0.056824,0.054138,0.995422,1.413116,2.826233,4.63562,1.0,1.0,1.0,1.0,1.0,70.0,,1721467271.555
0.4967106495466284,-0.2510164791340075,-0.0692846398994466,0.648696983474673,0.0083674794018679,-0.1285163950682828,-0.2880007400754543,-0.0109026633658026,0.2515602079572318,0.2605393246876708,-0.0040722607284149,0.2371455927467213,0.0837320158883255,-0.0515017139322912,0.1215451143166231,0.3496831367845556,0.0077830822559719,-0.2844711489654741,-0.1175502810650788,0.1843019921017478,796.5934065934066,794.1758241758242,798.2051282051282,796.1904761904763,913.4432234432236,726.0805860805862,-0.056824,0.054138,0.995422,1.413116,2.826233,4.63562,1.0,1.0,1.0,1.0,1.0,70.0,,1721467271.555
0.4967106495466284,-0.2510164791340075,-0.0692846398994466,0.648696983474673,0.0083674794018679,-0.1285163950682828,-0.2880007400754543,-0.0109026633658026,0.2515602079572318,0.2605393246876708,-0.0040722607284149,0.2371455927467213,0.0837320158883255,-0.0515017139322912,0.1215451143166231,0.3496831367845556,0.0077830822559719,-0.2844711489654741,-0.1175502810650788,0.1843019921017478,805.4578754578755,799.4139194139194,805.4578754578755,801.025641025641,957.3626373626374,902.5641025641024,-0.056824,0.054138,0.995422,1.413116,2.826233,4.63562,1.0,1.0,1.0,1.0,1.0,70.0,,1721467271.556
0.4967106495466284,-0.2510164791340075,-0.0692846398994466,0.648696983474673,0.0083674794018679,-0.1285163950682828,-0.2880007400754543,-0.0109026633658026,0.2515602079572318,0.2605393246876708,-0.0040722607284149,0.2371455927467213,0.0837320158883255,-0.0515017139322912,0.1215451143166231,0.3496831367845556,0.0077830822559719,-0.2844711489654741,-0.1175502810650788,0.1843019921017478,798.6080586080586,799.0109890109891,790.952380952381,784.1025641025641,853.4065934065934,741.3919413919414,-0.056824,0.054138,0.995422,1.413116,2.826233,4.63562,1.0,1.0,1.0,1.0,1.0,70.0,,1721467271.556
0.4967106495466284,-0.2510164791340075,-0.0692846398994466,0.648696983474673,0.0083674794018679,-0.1285163950682828,-0.2880007400754543,-0.0109026633658026,0.2515602079572318,0.2605393246876708,-0.0040722607284149,0.2371455927467213,0.0837320158883255,-0.0515017139322912,0.1215451143166231,0.3496831367845556,0.0077830822559719,-0.2844711489654741,-0.1175502810650788,0.1843019921017478,793.3699633699634,799.4139194139194,782.893772893773,783.6996336996338,789.3406593406594,557.2527472527472,-0.064636,0.055298,0.986389,1.525269,3.431854,3.215027,1.0,1.0,1.0,1.0,1.0,70.0,,1721467271.599
0.4967106495466284,-0.2510164791340075,-0.0692846398994466,0.648696983474673,0.0083674794018679,-0.1285163950682828,-0.2880007400754543,-0.0109026633658026,0.2515602079572318,0.2605393246876708,-0.0040722607284149,0.2371455927467213,0.0837320158883255,-0.0515017139322912,0.1215451143166231,0.3496831367845556,0.0077830822559719,-0.2844711489654741,-0.1175502810650788,0.1843019921017478,793.3699633699634,799.8168498168499,791.3553113553114,794.1758241758242,794.981684981685,834.8717948717949,-0.064636,0.055298,0.986389,1.525269,3.431854,3.215027,1.0,1.0,1.0,1.0,1.0,70.0,,1721467271.599
0.4967106495466284,-0.2510164791340075,-0.0692846398994466,0.648696983474673,0.0083674794018679,-0.1285163950682828,-0.2880007400754543,-0.0109026633658026,0.2515602079572318,0.2605393246876708,-0.0040722607284149,0.2371455927467213,0.0837320158883255,-0.0515017139322912,0.1215451143166231,0.3496831367845556,0.0077830822559719,-0.2844711489654741,-0.1175502810650788,0.1843019921017478,795.3846153846154,799.8168498168499,796.5934065934066,795.7875457875458,782.0879120879121,900.1465201465202,-0.064636,0.055298,0.986389,1.525269,3.431854,3.215027,1.0,1.0,1.0,1.0,1.0,70.0,,1721467271.6
0.4967106495466284,-0.2510164791340075,-0.0692846398994466,0.648696983474673,0.0083674794018679,-0.1285163950682828,-0.2880007400754543,-0.0109026633658026,0.2515602079572318,0.2605393246876708,-0.0040722607284149,0.2371455927467213,0.0837320158883255,-0.0515017139322912,0.1215451143166231,0.3496831367845556,0.0077830822559719,-0.2844711489654741,-0.1175502810650788,0.1843019921017478,799.0109890109891,800.2197802197802,794.981684981685,802.2344322344322,716.4102564102565,630.1831501831502,-0.064636,0.055298,0.986389,1.525269,3.431854,3.215027,1.0,1.0,1.0,1.0,1.0,70.0,,1721467271.6
0.4967106495466284,-0.2510164791340075,-0.0692846398994466,0.648696983474673,0.0083674794018679,-0.1285163950682828,-0.2880007400754543,-0.0109026633658026,0.2515602079572318,0.2605393246876708,-0.0040722607284149,0.2371455927467213,0.0837320158883255,-0.0515017139322912,0.1215451143166231,0.3496831367845556,0.0077830822559719,-0.2844711489654741,-0.1175502810650788,0.1843019921017478,798.2051282051282,797.8021978021978,790.5494505494506,801.4285714285714,680.5494505494506,542.7472527472528,-0.064636,0.055298,0.986389,1.525269,3.431854,3.215027,1.0,1.0,1.0,1.0,1.0,70.0,,1721467271.6
0.4967106495466284,-0.2510164791340075,-0.0692846398994466,0.648696983474673,0.0083674794018679,-0.1285163950682828,-0.2880007400754543,-0.0109026633658026,0.2515602079572318,0.2605393246876708,-0.0040722607284149,0.2371455927467213,0.0837320158883255,-0.0515017139322912,0.1215451143166231,0.3496831367845556,0.0077830822559719,-0.2844711489654741,-0.1175502810650788,0.1843019921017478,791.7582417582418,796.996336996337,791.7582417582418,793.7728937728938,697.0695970695971,852.1978021978023,-0.064636,0.055298,0.986389,1.525269,3.431854,3.215027,1.0,1.0,1.0,1.0,1.0,70.0,,1721467271.601
0.4967106495466284,-0.2510164791340075,-0.0692846398994466,0.648696983474673,0.0083674794018679,-0.1285163950682828,-0.2880007400754543,-0.0109026633658026,0.2515602079572318,0.2605393246876708,-0.0040722607284149,0.2371455927467213,0.0837320158883255,-0.0515017139322912,0.1215451143166231,0.3496831367845556,0.0077830822559719,-0.2844711489654741,-0.1175502810650788,0.1843019921017478,790.952380952381,796.1904761904763,799.0109890109891,799.0109890109891,751.0622710622711,1098.388278388278,-0.064636,0.055298,0.986389,1.525269,3.431854,3.215027,1.0,1.0,1.0,1.0,1.0,70.0,,1721467271.601
0.4957907323054897,-0.2501908287984019,-0.0226500548173147,0.6631103060782566,0.033600190627584,-0.1402859503038037,-0.2766932169202729,-0.0019625589139418,0.2214129347508684,0.3309769102706681,-0.0050765935874507,0.2068886447458895,0.0609319282560815,-0.0589019313502052,0.0958323669641476,0.3431710502469697,0.0110441228116529,-0.2742515834018969,-0.1292294613581879,0.1978610018548083,801.025641025641,793.3699633699634,801.025641025641,811.5018315018315,759.5238095238095,1091.135531135531,-0.064636,0.055298,0.986389,1.525269,3.431854,3.215027,1.0,1.0,1.0,1.0,1.0,70.0,,1721467271.601
0.4957907323054897,-0.2501908287984019,-0.0226500548173147,0.6631103060782566,0.033600190627584,-0.1402859503038037,-0.2766932169202729,-0.0019625589139418,0.2214129347508684,0.3309769102706681,-0.0050765935874507,0.2068886447458895,0.0609319282560815,-0.0589019313502052,0.0958323669641476,0.3431710502469697,0.0110441228116529,-0.2742515834018969,-0.1292294613581879,0.1978610018548083,799.0109890109891,790.1465201465202,798.2051282051282,803.040293040293,782.4908424908425,767.5824175824176,-0.064636,0.055298,0.986389,1.525269,3.431854,3.215027,1.0,1.0,1.0,1.0,1.0,70.0,,1721467271.602
0.4957907323054897,-0.2501908287984019,-0.0226500548173147,0.6631103060782566,0.033600190627584,-0.1402859503038037,-0.2766932169202729,-0.0019625589139418,0.2214129347508684,0.3309769102706681,-0.0050765935874507,0.2068886447458895,0.0609319282560815,-0.0589019313502052,0.0958323669641476,0.3431710502469697,0.0110441228116529,-0.2742515834018969,-0.1292294613581879,0.1978610018548083,788.9377289377289,791.3553113553114,792.5641025641025,793.3699633699634,859.4505494505495,677.3260073260074,-0.064636,0.055298,0.986389,1.525269,3.431854,3.215027,1.0,1.0,1.0,1.0,1.0,70.0,,1721467271.603
