Delta_TP9,Delta_AF7,Delta_AF8,Delta_TP10,Theta_TP9,Theta_AF7,Theta_AF8,Theta_TP10,Alpha_TP9,Alpha_AF7,Alpha_AF8,Alpha_TP10,Beta_TP9,Beta_AF7,Beta_AF8,Beta_TP10,Gamma_TP9,Gamma_AF7,Gamma_AF8,Gamma_TP10,RAW_TP9,RAW_AF7,RAW_AF8,RAW_TP10,AUX_RIGHT,AUX_LEFT,Accelerometer_X,Accelerometer_Y,Accelerometer_Z,Gyro_X,Gyro_Y,Gyro_Z,HeadBandOn,HSI_TP9,HSI_AF7,HSI_AF8,HSI_TP10,Battery,Elements,time
0.8297920369315852,0.7011214275393058,0.4380009742672281,0.5565672858212081,0.629321521518134,-0.1812035675782331,0.1719536453266409,0.3898002783309212,0.3491929235154347,0.4063374302777945,0.1611747028773834,0.9147680875815898,0.6467951199234495,0.5639841602240806,0.291779796843475,0.582764971738525,0.1361954785975688,0.500580075291088,0.1002587375144505,0.4325216623527728,766.3736263736264,801.4285714285714,797.8021978021978,801.4285714285714,827.6190476190476,713.1868131868132,-0.031677,-0.015259,0.983521,3.334656,2.220612,4.628143,1.0,1.0,1.0,1.0,1.0,80.0,,1760267824.995
0.8297920369315852,0.7011214275393058,0.4380009742672281,0.5565672858212081,0.629321521518134,-0.1812035675782331,0.1719536453266409,0.3898002783309212,0.3491929235154347,0.4063374302777945,0.1611747028773834,0.9147680875815898,0.6467951199234495,0.5639841602240806,0.291779796843475,0.582764971738525,0.1361954785975688,0.500580075291088,0.1002587375144505,0.4325216623527728,778.4615384615385,804.2490842490843,801.4285714285714,802.2344322344322,872.3443223443223,794.5787545787546,-0.031677,-0.015259,0.983521,3.334656,2.220612,4.628143,1.0,1.0,1.0,1.0,1.0,80.0,,1760267824.996
0.8297920369315852,0.7011214275393058,0.4380009742672281,0.5565672858212081,0.629321521518134,-0.1812035675782331,0.1719536453266409,0.3898002783309212,0.3491929235154347,0.4063374302777945,0.1611747028773834,0.9147680875815898,0.6467951199234495,0.5639841602240806,0.291779796843475,0.582764971738525,0.1361954785975688,0.500580075291088,0.1002587375144505,0.4325216623527728,782.893772893773,803.040293040293,803.040293040293,790.952380952381,834.4688644688645,738.1684981684982,-0.031677,-0.015259,0.983521,3.334656,2.220612,4.628143,1.0,1.0,1.0,1.0,1.0,80.0,,1760267824.996
0.8297920369315852,0.6967624105523739,0.4430745550928555,0.5254156269006812,0.629321521518134,-0.2177094865977213,0.160330124417789,0.3401801070706298,0.3491929235154347,0.2985642983148161,0.1639919994076473,0.9147680875815898,0.6467951199234495,0.5037450367687082,0.2195418611185189,0.5935886611877402,0.1361954785975688,0.4145377844675634,0.0336692559384182,0.4871003298225549,799.0109890109891,799.4139194139194,800.6227106227107,793.3699633699634,834.8717948717949,728.4981684981685,-0.031677,-0.015259,0.983521,3.334656,2.220612,4.628143,1.0,1.0,1.0,1.0,1.0,80.0,,1760267824.996
0.8297920369315852,0.6967624105523739,0.4430745550928555,0.5254156269006812,0.629321521518134,-0.2177094865977213,0.160330124417789,0.3401801070706298,0.3491929235154347,0.2985642983148161,0.1639919994076473,0.9147680875815898,0.6467951199234495,0.5037450367687082,0.2195418611185189,0.5935886611877402,0.1361954785975688,0.4145377844675634,0.0336692559384182,0.4871003298225549,792.967032967033,797.3992673992674,796.5934065934066,796.1904761904763,873.1501831501831,811.0989010989011,-0.031677,-0.015259,0.983521,3.334656,2.220612,4.628143,1.0,1.0,1.0,1.0,1.0,80.0,,1760267824.997
0.8297920369315852,0.6967624105523739,0.4430745550928555,0.5254156269006812,0.629321521518134,-0.2177094865977213,0.160330124417789,0.3401801070706298,0.3491929235154347,0.2985642983148161,0.1639919994076473,0.9147680875815898,0.6467951199234495,0.5037450367687082,0.2195418611185189,0.5935886611877402,0.1361954785975688,0.4145377844675634,0.0336692559384182,0.4871003298225549,789.7435897435897,799.4139194139194,797.8021978021978,793.3699633699634,769.5970695970697,994.4322344322344,-0.031677,-0.015259,0.983521,3.334656,2.220612,4.628143,1.0,1.0,1.0,1.0,1.0,80.0,,1760267824.997
0.8297920369315852,0.6967624105523739,0.4430745550928555,0.5254156269006812,0.629321521518134,-0.2177094865977213,0.160330124417789,0.3401801070706298,0.3491929235154347,0.2985642983148161,0.1639919994076473,0.9147680875815898,0.6467951199234495,0.5037450367687082,0.2195418611185189,0.5935886611877402,0.1361954785975688,0.4145377844675634,0.0336692559384182,0.4871003298225549,793.3699633699634,802.2344322344322,797.8021978021978,801.4285714285714,647.5091575091575,1014.578754578755,-0.031677,-0.015259,0.983521,3.334656,2.220612,4.628143,1.0,1.0,1.0,1.0,1.0,80.0,,1760267824.998
0.8297920369315852,0.6967624105523739,0.4430745550928555,0.5254156269006812,0.629321521518134,-0.2177094865977213,0.160330124417789,0.3401801070706298,0.3491929235154347,0.2985642983148161,0.1639919994076473,0.9147680875815898,0.6467951199234495,0.5037450367687082,0.2195418611185189,0.5935886611877402,0.1361954785975688,0.4145377844675634,0.0336692559384182,0.4871003298225549,791.7582417582418,799.8168498168499,795.3846153846154,801.025641025641,669.6703296703297,743.0036630036631,-0.031677,-0.015259,0.983521,3.334656,2.220612,4.628143,1.0,1.0,1.0,1.0,1.0,80.0,,1760267824.998
0.8297920369315852,0.6967624105523739,0.4430745550928555,0.5254156269006812,0.629321521518134,-0.2177094865977213,0.160330124417789,0.3401801070706298,0.3491929235154347,0.2985642983148161,0.1639919994076473,0.9147680875815898,0.6467951199234495,0.5037450367687082,0.2195418611185189,0.5935886611877402,0.1361954785975688,0.4145377844675634,0.0336692559384182,0.4871003298225549,793.3699633699634,802.2344322344322,801.4285714285714,798.6080586080586,674.5054945054945,572.1611721611722,-0.031677,-0.015259,0.983521,3.334656,2.220612,4.628143,1.0,1.0,1.0,1.0,1.0,80.0,,1760267824.998
0.8297920369315852,0.6967624105523739,0.4430745550928555,0.5254156269006812,0.629321521518134,-0.2177094865977213,0.160330124417789,0.3401801070706298,0.3491929235154347,0.2985642983148161,0.1639919994076473,0.9147680875815898,0.6467951199234495,0.5037450367687082,0.2195418611185189,0.5935886611877402,0.1361954785975688,0.4145377844675634,0.0336692559384182,0.4871003298225549,793.3699633699634,805.054945054945,803.040293040293,808.2783882783883,655.1648351648352,746.6300366300367,-0.031677,-0.015259,0.983521,3.334656,2.220612,4.628143,1.0,1.0,1.0,1.0,1.0,80.0,,1760267824.998
0.8297920369315852,0.6967624105523739,0.4430745550928555,0.5254156269006812,0.629321521518134,-0.2177094865977213,0.160330124417789,0.3401801070706298,0.3491929235154347,0.2985642983148161,0.1639919994076473,0.9147680875815898,0.6467951199234495,0.5037450367687082,0.2195418611185189,0.5935886611877402,0.1361954785975688,0.4145377844675634,0.0336692559384182,0.4871003298225549,796.5934065934066,802.6373626373627,801.8315018315019,799.8168498168499,653.5531135531136,664.0293040293041,-0.031677,-0.015259,0.983521,3.334656,2.220612,4.628143,1.0,1.0,1.0,1.0,1.0,80.0,,1760267824.999
0.8297920369315852,0.6967624105523739,0.4430745550928555,0.5254156269006812,0.629321521518134,-0.2177094865977213,0.160330124417789,0.3401801070706298,0.3491929235154347,0.2985642983148161,0.1639919994076473,0.9147680875815898,0.6467951199234495,0.5037450367687082,0.2195418611185189,0.5935886611877402,0.1361954785975688,0.4145377844675634,0.0336692559384182,0.4871003298225549,791.7582417582418,802.2344322344322,801.4285714285714,792.1611721611722,682.967032967033,446.4468864468865,-0.031677,-0.015259,0.983521,3.334656,2.220612,4.628143,1.0,1.0,1.0,1.0,1.0,80.0,,1760267824.999
0.8297920369315852,0.6967624105523739,0.4430745550928555,0.5254156269006812,0.629321521518134,-0.2177094865977213,0.160330124417789,0.3401801070706298,0.3491929235154347,0.2985642983148161,0.1639919994076473,0.9147680875815898,0.6467951199234495,0.5037450367687082,0.2195418611185189,0.5935886611877402,0.1361954785975688,0.4145377844675634,0.0336692559384182,0.4871003298225549,789.3406593406594,803.8461538461539,796.5934065934066,803.040293040293,747.032967032967,665.6410256410256,-0.034851,-0.015015,0.96228,2.407532,-1.540222,2.071075,1.0,1.0,1.0,1.0,1.0,80.0,,1760267825.063
0.8297920369315852,0.6967624105523739,0.4430745550928555,0.5254156269006812,0.629321521518134,-0.2177094865977213,0.160330124417789,0.3401801070706298,0.3491929235154347,0.2985642983148161,0.1639919994076473,0.9147680875815898,0.6467951199234495,0.5037450367687082,0.2195418611185189,0.5935886611877402,0.1361954785975688,0.4145377844675634,0.0336692559384182,0.4871003298225549,801.8315018315019,800.6227106227107,795.7875457875458,796.1904761904763,812.7106227106227,768.3882783882784,-0.034851,-0.015015,0.96228,2.407532,-1.540222,2.071075,1.0,1.0,1.0,1.0,1.0,80.0,,1760267825.064
0.8297920369315852,0.6967624105523739,0.4430745550928555,0.5254156269006812,0.629321521518134,-0.2177094865977213,0.160330124417789,0.3401801070706298,0.3491929235154347,0.2985642983148161,0.1639919994076473,0.9147680875815898,0.6467951199234495,0.5037450367687082,0.2195418611185189,0.5935886611877402,0.1361954785975688,0.4145377844675634,0.0336692559384182,0.4871003298225549,809.4871794871796,796.996336996337,800.6227106227107,789.3406593406594,834.0659340659341,715.6043956043957,-0.034851,-0.015015,0.96228,2.407532,-1.540222,2.071075,1.0,1.0,1.0,1.0,1.0,80.0,,1760267825.064
0.8297920369315852,0.6967624105523739,0.4430745550928555,0.5254156269006812,0.629321521518134,-0.2177094865977213,0.160330124417789,0.3401801070706298,0.3491929235154347,0.2985642983148161,0.1639919994076473,0.9147680875815898,0.6467951199234495,0.5037450367687082,0.2195418611185189,0.5935886611877402,0.1361954785975688,0.4145377844675634,0.0336692559384182,0.4871003298225549,794.5787545787546,793.7728937728938,798.2051282051282,783.6996336996338,789.3406593406594,857.032967032967,-0.034851,-0.015015,0.96228,2.407532,-1.540222,2.071075,1.0,1.0,1.0,1.0,1.0,80.0,,1760267825.064
0.8297920369315852,0.6967624105523739,0.4430745550928555,0.5254156269006812,0.629321521518134,-0.2177094865977213,0.160330124417789,0.3401801070706298,0.3491929235154347,0.2985642983148161,0.1639919994076473,0.9147680875815898,0.6467951199234495,0.5037450367687082,0.2195418611185189,0.5935886611877402,0.1361954785975688,0.4145377844675634,0.0336692559384182,0.4871003298225549,779.6703296703297,796.5934065934066,797.3992673992674,780.8791208791209,785.7142857142858,953.3333333333334,-0.034851,-0.015015,0.96228,2.407532,-1.540222,2.071075,1.0,1.0,1.0,1.0,1.0,80.0,,1760267825.065
0.8297920369315852,0.6967624105523739,0.4430745550928555,0.5254156269006812,0.629321521518134,-0.2177094865977213,0.160330124417789,0.3401801070706298,0.3491929235154347,0.2985642983148161,0.1639919994076473,0.9147680875815898,0.6467951199234495,0.5037450367687082,0.2195418611185189,0.5935886611877402,0.1361954785975688,0.4145377844675634,0.0336692559384182,0.4871003298225549,778.0586080586081,799.0109890109891,799.0109890109891,790.952380952381,814.3223443223443,1060.512820512821,-0.034851,-0.015015,0.96228,2.407532,-1.540222,2.071075,1.0,1.0,1.0,1.0,1.0,80.0,,1760267825.065
0.8297920369315852,0.6967624105523739,0.4430745550928555,0.5254156269006812,0.629321521518134,-0.2177094865977213,0.160330124417789,0.3401801070706298,0.3491929235154347,0.2985642983148161,0.1639919994076473,0.9147680875815898,0.6467951199234495,0.5037450367687082,0.2195418611185189,0.5935886611877402,0.1361954785975688,0.4145377844675634,0.0336692559384182,0.4871003298225549,774.8351648351648,800.6227106227107,798.6080586080586,801.8315018315019,801.8315018315019,1177.765567765568,-0.034851,-0.015015,0.96228,2.407532,-1.540222,2.071075,1.0,1.0,1.0,1.0,1.0,80.0,,1760267825.065
0.8297920369315852,0.6967624105523739,0.4430745550928555,0.5254156269006812,0.629321521518134,-0.2177094865977213,0.160330124417789,0.3401801070706298,0.3491929235154347,0.2985642983148161,0.1639919994076473,0.9147680875815898,0.6467951199234495,0.5037450367687082,0.2195418611185189,0.5935886611877402,0.1361954785975688,0.4145377844675634,0.0336692559384182,0.4871003298225549,765.9706959706959,790.952380952381,793.3699633699634,794.5787545787546,762.7472527472528,796.5934065934066,-0.034851,-0.015015,0.96228,2.407532,-1.540222,2.071075,1.0,1.0,1.0,1.0,1.0,80.0,,1760267825.065
0.8297920369315852,0.6967624105523739,0.4430745550928555,0.5254156269006812,0.629321521518134,-0.2177094865977213,0.160330124417789,0.3401801070706298,0.3491929235154347,0.2985642983148161,0.1639919994076473,0.9147680875815898,0.6467951199234495,0.5037450367687082,0.2195418611185189,0.5935886611877402,0.1361954785975688,0.4145377844675634,0.0336692559384182,0.4871003298225549,780.8791208791209,791.7582417582418,794.1758241758242,795.7875457875458,774.0293040293041,631.7948717948718,-0.034851,-0.015015,0.96228,2.407532,-1.540222,2.071075,1.0,1.0,1.0,1.0,1.0,80.0,,1760267825.066
0.8297920369315852,0.6967624105523739,0.4430745550928555,0.5254156269006812,0.629321521518134,-0.2177094865977213,0.160330124417789,0.3401801070706298,0.3491929235154347,0.2985642983148161,0.1639919994076473,0.9147680875815898,0.6467951199234495,0.5037450367687082,0.2195418611185189,0.5935886611877402,0.1361954785975688,0.4145377844675634,0.0336692559384182,0.4871003298225549,795.3846153846154,801.8315018315019,803.4432234432235,817.948717948718,780.0732600732601,711.1721611721612,-0.034851,-0.015015,0.96228,2.407532,-1.540222,2.071075,1.0,1.0,1.0,1.0,1.0,80.0,,1760267825.066
0.8297920369315852,0.6967624105523739,0.4430745550928555,0.5254156269006812,0.629321521518134,-0.2177094865977213,0.160330124417789,0.3401801070706298,0.3491929235154347,0.2985642983148161,0.1639919994076473,0.9147680875815898,0.6467951199234495,0.5037450367687082,0.2195418611185189,0.5935886611877402,0.1361954785975688,0.4145377844675634,0.0336692559384182,0.4871003298225549,793.3699633699634,800.6227106227107,799.4139194139194,814.3223443223443,830.8424908424909,622.5274725274726,-0.034851,-0.015015,0.96228,2.407532,-1.540222,2.071075,1.0,1.0,1.0,1.0,1.0,80.0,,1760267825.066
0.8297920369315852,0.6967624105523739,0.4430745550928555,0.5254156269006812,0.629321521518134,-0.2177094865977213,0.160330124417789,0.3401801070706298,0.3491929235154347,0.2985642983148161,0.1639919994076473,0.9147680875815898,0.6467951199234495,0.5037450367687082,0.2195418611185189,0.5935886611877402,0.1361954785975688,0.4145377844675634,0.0336692559384182,0.4871003298225549,781.6849816849817,801.025641025641,796.996336996337,810.2930402930403,854.6153846153846,675.7142857142858,-0.034851,-0.015015,0.96228,2.407532,-1.540222,2.071075,1.0,1.0,1.0,1.0,1.0,80.0,,1760267825.067
0.8297920369315852,0.6967624105523739,0.4430745550928555,0.5254156269006812,0.629321521518134,-0.2177094865977213,0.160330124417789,0.3401801070706298,0.3491929235154347,0.2985642983148161,0.1639919994076473,0.9147680875815898,0.6467951199234495,0.5037450367687082,0.2195418611185189,0.5935886611877402,0.1361954785975688,0.4145377844675634,0.0336692559384182,0.4871003298225549,780.0732600732601,805.4578754578755,795.7875457875458,798.2051282051282,864.2857142857143,947.6923076923076,-0.015991,-0.040344,0.99585,3.080444,-2.041168,2.056122,1.0,1.0,1.0,1.0,1.0,80.0,,1760267825.111
0.8297920369315852,0.6967624105523739,0.4430745550928555,0.5254156269006812,0.629321521518134,-0.2177094865977213,0.160330124417789,0.3401801070706298,0.3491929235154347,0.2985642983148161,0.1639919994076473,0.9147680875815898,0.6467951199234495,0.5037450367687082,0.2195418611185189,0.5935886611877402,0.1361954785975688,0.4145377844675634,0.0336692559384182,0.4871003298225549,789.7435897435897,802.6373626373627,795.7875457875458,768.7912087912088,875.5677655677656,835.2747252747253,-0.015991,-0.040344,0.99585,3.080444,-2.041168,2.056122,1.0,1.0,1.0,1.0,1.0,80.0,,1760267825.111
0.8297920369315852,0.6967624105523739,0.4430745550928555,0.5254156269006812,0.629321521518134,-0.2177094865977213,0.160330124417789,0.3401801070706298,0.3491929235154347,0.2985642983148161,0.1639919994076473,0.9147680875815898,0.6467951199234495,0.5037450367687082,0.2195418611185189,0.5935886611877402,0.1361954785975688,0.4145377844675634,0.0336692559384182,0.4871003298225549,787.7289377289378,798.2051282051282,790.952380952381,775.2380952380953,814.3223443223443,650.7326007326008,-0.015991,-0.040344,0.99585,3.080444,-2.041168,2.056122,1.0,1.0,1.0,1.0,1.0,80.0,,1760267825.112
0.8297920369315852,0.6967624105523739,0.4430745550928555,0.5254156269006812,0.629321521518134,-0.2177094865977213,0.160330124417789,0.3401801070706298,0.3491929235154347,0.2985642983148161,0.1639919994076473,0.9147680875815898,0.6467951199234495,0.5037450367687082,0.2195418611185189,0.5935886611877402,0.1361954785975688,0.4145377844675634,0.0336692559384182,0.4871003298225549,773.6263736263736,791.7582417582418,785.7142857142858,779.6703296703297,822.7838827838829,646.7032967032967,-0.015991,-0.040344,0.99585,3.080444,-2.041168,2.056122,1.0,1.0,1.0,1.0,1.0,80.0,,1760267825.112
0.8297920369315852,0.6967624105523739,0.4430745550928555,0.5254156269006812,0.629321521518134,-0.2177094865977213,0.160330124417789,0.3401801070706298,0.3491929235154347,0.2985642983148161,0.1639919994076473,0.9147680875815898,0.6467951199234495,0.5037450367687082,0.2195418611185189,0.5935886611877402,0.1361954785975688,0.4145377844675634,0.0336692559384182,0.4871003298225549,794.981684981685,794.1758241758242,787.3260073260074,797.8021978021978,844.5421245421246,731.7216117216118,-0.015991,-0.040344,0.99585,3.080444,-2.041168,2.056122,1.0,1.0,1.0,1.0,1.0,80.0,,1760267825.112
0.8297920369315852,0.6934246615053746,0.4447458918145103,0.513403570175205,0.629321521518134,-0.2163284100612394,0.1475809020266381,0.3146890214236646,0.3491929235154347,0.2390528517059342,0.1191314680985163,0.9147680875815898,0.6467951199234495,0.4439286485325897,0.1413495308513135,0.6237895642477099,0.1361954785975688,0.3176427553843524,-0.0683578902812241,0.5496092948802249,822.7838827838829,800.2197802197802,790.5494505494506,809.8901098901099,738.974358974359,948.901098901099,-0.015991,-0.040344,0.99585,3.080444,-2.041168,2.056122,1.0,1.0,1.0,1.0,1.0,80.0,,1760267825.112
0.8297920369315852,0.6934246615053746,0.4447458918145103,0.513403570175205,0.629321521518134,-0.2163284100612394,0.1475809020266381,0.3146890214236646,0.3491929235154347,0.2390528517059342,0.1191314680985163,0.9147680875815898,0.6467951199234495,0.4439286485325897,0.1413495308513135,0.6237895642477099,0.1361954785975688,0.3176427553843524,-0.0683578902812241,0.5496092948802249,799.4139194139194,794.1758241758242,793.3699633699634,793.7728937728938,643.0769230769231,1035.934065934066,-0.015991,-0.040344,0.99585,3.080444,-2.041168,2.056122,1.0,1.0,1.0,1.0,1.0,80.0,,1760267825.113
0.8297920369315852,0.6934246615053746,0.4447458918145103,0.513403570175205,0.629321521518134,-0.2163284100612394,0.1475809020266381,0.3146890214236646,0.3491929235154347,0.2390528517059342,0.1191314680985163,0.9147680875815898,0.6467951199234495,0.4439286485325897,0.1413495308513135,0.6237895642477099,0.1361954785975688,0.3176427553843524,-0.0683578902812241,0.5496092948802249,790.5494505494506,791.7582417582418,794.981684981685,796.996336996337,781.2820512820513,806.2637362637363,-0.015991,-0.040344,0.99585,3.080444,-2.041168,2.056122,1.0,1.0,1.0,1.0,1.0,80.0,,1760267825.114
0.8297920369315852,0.6934246615053746,0.4447458918145103,0.513403570175205,0.629321521518134,-0.2163284100612394,0.1475809020266381,0.3146890214236646,0.3491929235154347,0.2390528517059342,0.1191314680985163,0.9147680875815898,0.6467951199234495,0.4439286485325897,0.1413495308513135,0.6237895642477099,0.1361954785975688,0.3176427553843524,-0.0683578902812241,0.5496092948802249,786.1172161172161,792.5641025641025,788.5347985347986,788.9377289377289,727.6923076923077,596.7399267399268,-0.015991,-0.040344,0.99585,3.080444,-2.041168,2.056122,1.0,1.0,1.0,1.0,1.0,80.0,,1760267825.114
0.8297920369315852,0.6934246615053746,0.4447458918145103,0.513403570175205,0.629321521518134,-0.2163284100612394,0.1475809020266381,0.3146890214236646,0.3491929235154347,0.2390528517059342,0.1191314680985163,0.9147680875815898,0.6467951199234495,0.4439286485325897,0.1413495308513135,0.6237895642477099,0.1361954785975688,0.3176427553843524,-0.0683578902812241,0.5496092948802249,794.981684981685,802.2344322344322,786.1172161172161,780.8791208791209,670.0732600732601,649.1208791208792,-0.015991,-0.040344,0.99585,3.080444,-2.041168,2.056122,1.0,1.0,1.0,1.0,1.0,80.0,,1760267825.114
0.8297920369315852,0.6934246615053746,0.4447458918145103,0.513403570175205,0.629321521518134,-0.2163284100612394,0.1475809020266381,0.3146890214236646,0.3491929235154347,0.2390528517059342,0.1191314680985163,0.9147680875815898,0.6467951199234495,0.4439286485325897,0.1413495308513135,0.6237895642477099,0.1361954785975688,0.3176427553843524,-0.0683578902812241,0.5496092948802249,812.7106227106227,809.8901098901099,792.1611721611722,801.8315018315019,807.8754578754579,701.5018315018315,-0.015991,-0.040344,0.99585,3.080444,-2.041168,2.056122,1.0,1.0,1.0,1.0,1.0,80.0,,1760267825.115
0.8297920369315852,0.6934246615053746,0.4447458918145103,0.513403570175205,0.629321521518134,-0.2163284100612394,0.1475809020266381,0.3146890214236646,0.3491929235154347,0.2390528517059342,0.1191314680985163,0.9147680875815898,0.6467951199234495,0.4439286485325897,0.1413495308513135,0.6237895642477099,0.1361954785975688,0.3176427553843524,-0.0683578902812241,0.5496092948802249,795.3846153846154,796.5934065934066,793.7728937728938,804.6520146520147,840.5128205128206,663.6263736263736,-0.015991,-0.040344,0.99585,3.080444,-2.041168,2.056122,1.0,1.0,1.0,1.0,1.0,80.0,,1760267825.115
0.8297920369315852,0.6934246615053746,0.4447458918145103,0.513403570175205,0.629321521518134,-0.2163284100612394,0.1475809020266381,0.3146890214236646,0.3491929235154347,0.2390528517059342,0.1191314680985163,0.9147680875815898,0.6467951199234495,0.4439286485325897,0.1413495308513135,0.6237895642477099,0.1361954785975688,0.3176427553843524,-0.0683578902812241,0.5496092948802249,772.014652014652,790.5494505494506,793.3699633699634,792.1611721611722,837.2893772893773,708.3516483516484,-0.013977,-0.033081,1.003479,3.140259,-1.510315,3.297272,1.0,1.0,1.0,1.0,1.0,80.0,,1760267825.158
0.8297920369315852,0.6934246615053746,0.4447458918145103,0.513403570175205,0.629321521518134,-0.2163284100612394,0.1475809020266381,0.3146890214236646,0.3491929235154347,0.2390528517059342,0.1191314680985163,0.9147680875815898,0.6467951199234495,0.4439286485325897,0.1413495308513135,0.6237895642477099,0.1361954785975688,0.3176427553843524,-0.0683578902812241,0.5496092948802249,794.981684981685,795.3846153846154,795.7875457875458,786.1172161172161,765.5677655677656,701.5018315018315,-0.013977,-0.033081,1.003479,3.140259,-1.510315,3.297272,1.0,1.0,1.0,1.0,1.0,80.0,,1760267825.158
0.8297920369315852,0.6934246615053746,0.4447458918145103,0.513403570175205,0.629321521518134,-0.2163284100612394,0.1475809020266381,0.3146890214236646,0.3491929235154347,0.2390528517059342,0.1191314680985163,0.9147680875815898,0.6467951199234495,0.4439286485325897,0.1413495308513135,0.6237895642477099,0.1361954785975688,0.3176427553843524,-0.0683578902812241,0.5496092948802249,827.2161172161173,799.8168498168499,798.2051282051282,799.8168498168499,761.1355311355312,754.6886446886447,-0.013977,-0.033081,1.003479,3.140259,-1.510315,3.297272,1.0,1.0,1.0,1.0,1.0,80.0,,1760267825.159
0.8297920369315852,0.6934246615053746,0.4447458918145103,0.513403570175205,0.629321521518134,-0.2163284100612394,0.1475809020266381,0.3146890214236646,0.3491929235154347,0.2390528517059342,0.1191314680985163,0.9147680875815898,0.6467951199234495,0.4439286485325897,0.1413495308513135,0.6237895642477099,0.1361954785975688,0.3176427553843524,-0.0683578902812241,0.5496092948802249,812.3076923076924,805.4578754578755,792.5641025641025,789.7435897435897,728.4981684981685,790.5494505494506,-0.013977,-0.033081,1.003479,3.140259,-1.510315,3.297272,1.0,1.0,1.0,1.0,1.0,80.0,,1760267825.159
0.8297920369315852,0.6934246615053746,0.4447458918145103,0.513403570175205,0.629321521518134,-0.2163284100612394,0.1475809020266381,0.3146890214236646,0.3491929235154347,0.2390528517059342,0.1191314680985163,0.9147680875815898,0.6467951199234495,0.4439286485325897,0.1413495308513135,0.6237895642477099,0.1361954785975688,0.3176427553843524,-0.0683578902812241,0.5496092948802249,794.5787545787546,793.7728937728938,799.4139194139194,771.6117216117216,684.1758241758242,818.3516483516484,-0.013977,-0.033081,1.003479,3.140259,-1.510315,3.297272,1.0,1.0,1.0,1.0,1.0,80.0,,1760267825.159
0.8297920369315852,0.6934246615053746,0.4447458918145103,0.513403570175205,0.629321521518134,-0.2163284100612394,0.1475809020266381,0.3146890214236646,0.3491929235154347,0.2390528517059342,0.1191314680985163,0.9147680875815898,0.6467951199234495,0.4439286485325897,0.1413495308513135,0.6237895642477099,0.1361954785975688,0.3176427553843524,-0.0683578902812241,0.5496092948802249,793.7728937728938,792.1611721611722,804.2490842490843,782.0879120879121,721.2454212454213,1007.728937728938,-0.013977,-0.033081,1.003479,3.140259,-1.510315,3.297272,1.0,1.0,1.0,1.0,1.0,80.0,,1760267825.159
0.8297920369315852,0.6934246615053746,0.4447458918145103,0.513403570175205,0.629321521518134,-0.2163284100612394,0.1475809020266381,0.3146890214236646,0.3491929235154347,0.2390528517059342,0.1191314680985163,0.9147680875815898,0.6467951199234495,0.4439286485325897,0.1413495308513135,0.6237895642477099,0.1361954785975688,0.3176427553843524,-0.0683578902812241,0.5496092948802249,792.967032967033,802.2344322344322,796.1904761904763,780.4761904761905,751.8681318681319,1136.263736263736,-0.013977,-0.033081,1.003479,3.140259,-1.510315,3.297272,1.0,1.0,1.0,1.0,1.0,80.0,,1760267825.16
0.8297920369315852,0.6934246615053746,0.4447458918145103,0.513403570175205,0.629321521518134,-0.2163284100612394,0.1475809020266381,0.3146890214236646,0.3491929235154347,0.2390528517059342,0.1191314680985163,0.9147680875815898,0.6467951199234495,0.4439286485325897,0.1413495308513135,0.6237895642477099,0.1361954785975688,0.3176427553843524,-0.0683578902812241,0.5496092948802249,797.8021978021978,800.6227106227107,796.996336996337,788.9377289377289,755.0915750915751,764.3589743589744,-0.013977,-0.033081,1.003479,3.140259,-1.510315,3.297272,1.0,1.0,1.0,1.0,1.0,80.0,,1760267825.16
0.8297920369315852,0.6934246615053746,0.4447458918145103,0.513403570175205,0.629321521518134,-0.2163284100612394,0.1475809020266381,0.3146890214236646,0.3491929235154347,0.2390528517059342,0.1191314680985163,0.9147680875815898,0.6467951199234495,0.4439286485325897,0.1413495308513135,0.6237895642477099,0.1361954785975688,0.3176427553843524,-0.0683578902812241,0.5496092948802249,793.7728937728938,799.0109890109891,799.8168498168499,785.7142857142858,770.4029304029305,593.1135531135532,-0.013977,-0.033081,1.003479,3.140259,-1.510315,3.297272,1.0,1.0,1.0,1.0,1.0,80.0,,1760267825.16
0.8297920369315852,0.6934246615053746,0.4447458918145103,0.513403570175205,0.629321521518134,-0.2163284100612394,0.1475809020266381,0.3146890214236646,0.3491929235154347,0.2390528517059342,0.1191314680985163,0.9147680875815898,0.6467951199234495,0.4439286485325897,0.1413495308513135,0.6237895642477099,0.1361954785975688,0.3176427553843524,-0.0683578902812241,0.5496092948802249,790.5494505494506,798.6080586080586,805.054945054945,776.8498168498169,801.8315018315019,667.2527472527473,-0.013977,-0.033081,1.003479,3.140259,-1.510315,3.297272,1.0,1.0,1.0,1.0,1.0,80.0,,1760267825.16
0.8297920369315852,0.6934246615053746,0.4447458918145103,0.513403570175205,0.629321521518134,-0.2163284100612394,0.1475809020266381,0.3146890214236646,0.3491929235154347,0.2390528517059342,0.1191314680985163,0.9147680875815898,0.6467951199234495,0.4439286485325897,0.1413495308513135,0.6237895642477099,0.1361954785975688,0.3176427553843524,-0.0683578902812241,0.5496092948802249,783.2967032967033,794.5787545787546,801.025641025641,791.7582417582418,819.96336996337,605.2014652014652,-0.013977,-0.033081,1.003479,3.140259,-1.510315,3.297272,1.0,1.0,1.0,1.0,1.0,80.0,,1760267825.161
0.8297920369315852,0.6934246615053746,0.4447458918145103,0.513403570175205,0.629321521518134,-0.2163284100612394,0.1475809020266381,0.3146890214236646,0.3491929235154347,0.2390528517059342,0.1191314680985163,0.9147680875815898,0.6467951199234495,0.4439286485325897,0.1413495308513135,0.6237895642477099,0.1361954785975688,0.3176427553843524,-0.0683578902812241,0.5496092948802249,786.1172161172161,791.3553113553114,796.5934065934066,795.7875457875458,852.6007326007326,605.2014652014652,-0.013977,-0.033081,1.003479,3.140259,-1.510315,3.297272,1.0,1.0,1.0,1.0,1.0,80.0,,1760267825.161
0.8297920369315852,0.6934246615053746,0.4447458918145103,0.513403570175205,0.629321521518134,-0.2163284100612394,0.1475809020266381,0.3146890214236646,0.3491929235154347,0.2390528517059342,0.1191314680985163,0.9147680875815898,0.6467951199234495,0.4439286485325897,0.1413495308513135,0.6237895642477099,0.1361954785975688,0.3176427553843524,-0.0683578902812241,0.5496092948802249,790.5494505494506,794.981684981685,799.8168498168499,794.5787545787546,846.5567765567765,685.7875457875458,-0.013977,-0.033081,1.003479,3.140259,-1.510315,3.297272,1.0,1.0,1.0,1.0,1.0,80.0,,1760267825.204
0.8297920369315852,0.6934246615053746,0.4447458918145103,0.513403570175205,0.629321521518134,-0.2163284100612394,0.1475809020266381,0.3146890214236646,0.3491929235154347,0.2390528517059342,0.1191314680985163,0.9147680875815898,0.6467951199234495,0.4439286485325897,0.1413495308513135,0.6237895642477099,0.1361954785975688,0.3176427553843524,-0.0683578902812241,0.5496092948802249,779.6703296703297,799.0109890109891,797.8021978021978,787.7289377289378,793.3699633699634,676.9230769230769,-0.013977,-0.033081,1.003479,3.140259,-1.510315,3.297272,1.0,1.0,1.0,1.0,1.0,80.0,,1760267825.204
0.8297920369315852,0.6934246615053746,0.4447458918145103,0.513403570175205,0.629321521518134,-0.2163284100612394,0.1475809020266381,0.3146890214236646,0.3491929235154347,0.2390528517059342,0.1191314680985163,0.9147680875815898,0.6467951199234495,0.4439286485325897,0.1413495308513135,0.6237895642477099,0.1361954785975688,0.3176427553843524,-0.0683578902812241,0.5496092948802249,775.2380952380953,797.3992673992674,793.3699633699634,779.6703296703297,782.893772893773,599.5604395604396,-0.013977,-0.033081,1.003479,3.140259,-1.510315,3.297272,1.0,1.0,1.0,1.0,1.0,80.0,,1760267825.204
0.8297920369315852,0.6934246615053746,0.4447458918145103,0.513403570175205,0.629321521518134,-0.2163284100612394,0.1475809020266381,0.3146890214236646,0.3491929235154347,0.2390528517059342,0.1191314680985163,0.9147680875815898,0.6467951199234495,0.4439286485325897,0.1413495308513135,0.6237895642477099,0.1361954785975688,0.3176427553843524,-0.0683578902812241,0.5496092948802249,786.5201465201466,796.5934065934066,796.996336996337,791.7582417582418,909.0109890109892,630.989010989011,-0.013977,-0.033081,1.003479,3.140259,-1.510315,3.297272,1.0,1.0,1.0,1.0,1.0,80.0,,1760267825.205
0.8297920369315852,0.6934246615053746,0.4447458918145103,0.513403570175205,0.629321521518134,-0.2163284100612394,0.1475809020266381,0.3146890214236646,0.3491929235154347,0.2390528517059342,0.1191314680985163,0.9147680875815898,0.6467951199234495,0.4439286485325897,0.1413495308513135,0.6237895642477099,0.1361954785975688,0.3176427553843524,-0.0683578902812241,0.5496092948802249,798.2051282051282,799.0109890109891,799.4139194139194,806.2637362637363,985.1648351648352,1013.772893772894,-0.013977,-0.033081,1.003479,3.140259,-1.510315,3.297272,1.0,1.0,1.0,1.0,1.0,80.0,,1760267825.205
0.8297920369315852,0.6934246615053746,0.4447458918145103,0.513403570175205,0.629321521518134,-0.2163284100612394,0.1475809020266381,0.3146890214236646,0.3491929235154347,0.2390528517059342,0.1191314680985163,0.9147680875815898,0.6467951199234495,0.4439286485325897,0.1413495308513135,0.6237895642477099,0.1361954785975688,0.3176427553843524,-0.0683578902812241,0.5496092948802249,795.3846153846154,803.040293040293,796.5934065934066,801.4285714285714,886.4468864468864,1226.923076923077,-0.013977,-0.033081,1.003479,3.140259,-1.510315,3.297272,1.0,1.0,1.0,1.0,1.0,80.0,,1760267825.205
0.8297920369315852,0.6934246615053746,0.4447458918145103,0.513403570175205,0.629321521518134,-0.2163284100612394,0.1475809020266381,0.3146890214236646,0.3491929235154347,0.2390528517059342,0.1191314680985163,0.9147680875815898,0.6467951199234495,0.4439286485325897,0.1413495308513135,0.6237895642477099,0.1361954785975688,0.3176427553843524,-0.0683578902812241,0.5496092948802249,781.6849816849817,799.0109890109891,800.2197802197802,802.2344322344322,829.2307692307693,1109.67032967033,-0.013977,-0.033081,1.003479,3.140259,-1.510315,3.297272,1.0,1.0,1.0,1.0,1.0,80.0,,1760267825.206
0.8297920369315852,0.6905893399151587,0.4437844229551318,0.5093403612383949,0.629321521518134,-0.1935283354473514,0.138651562082381,0.3068216968670785,0.3491929235154347,0.2419093935052126,0.077174005105756,0.9147680875815898,0.6467951199234495,0.3846431733387527,0.0775033106123397,0.6503838676586092,0.1361954785975688,0.2048928480406861,-0.2006726615285006,0.5916917545019087,794.981684981685,788.1318681318681,801.025641025641,794.981684981685,920.6959706959708,906.996336996337,-0.013977,-0.033081,1.003479,3.140259,-1.510315,3.297272,1.0,1.0,1.0,1.0,1.0,80.0,,1760267825.206
0.8297920369315852,0.6905893399151587,0.4437844229551318,0.5093403612383949,0.629321521518134,-0.1935283354473514,0.138651562082381,0.3068216968670785,0.3491929235154347,0.2419093935052126,0.077174005105756,0.9147680875815898,0.6467951199234495,0.3846431733387527,0.0775033106123397,0.6503838676586092,0.1361954785975688,0.2048928480406861,-0.2006726615285006,0.5916917545019087,803.4432234432235,791.3553113553114,794.5787545787546,796.5934065934066,938.8278388278388,821.1721611721612,-0.013977,-0.033081,1.003479,3.140259,-1.510315,3.297272,1.0,1.0,1.0,1.0,1.0,80.0,,1760267825.207
0.8297920369315852,0.6905893399151587,0.4437844229551318,0.5093403612383949,0.629321521518134,-0.1935283354473514,0.138651562082381,0.3068216968670785,0.3491929235154347,0.2419093935052126,0.077174005105756,0.9147680875815898,0.6467951199234495,0.3846431733387527,0.0775033106123397,0.6503838676586092,0.1361954785975688,0.2048928480406861,-0.2006726615285006,0.5916917545019087,795.3846153846154,799.0109890109891,797.3992673992674,808.2783882783883,928.3516483516484,871.1355311355312,-0.013977,-0.033081,1.003479,3.140259,-1.510315,3.297272,1.0,1.0,1.0,1.0,1.0,80.0,,1760267825.207
0.8297920369315852,0.6905893399151587,0.4437844229551318,0.5093403612383949,0.629321521518134,-0.1935283354473514,0.138651562082381,0.3068216968670785,0.3491929235154347,0.2419093935052126,0.077174005105756,0.9147680875815898,0.6467951199234495,0.3846431733387527,0.0775033106123397,0.6503838676586092,0.1361954785975688,0.2048928480406861,-0.2006726615285006,0.5916917545019087,801.4285714285714,802.2344322344322,801.8315018315019,795.7875457875458,966.2271062271062,811.0989010989011,-0.013977,-0.033081,1.003479,3.140259,-1.510315,3.297272,1.0,1.0,1.0,1.0,1.0,80.0,,1760267825.207
0.8297920369315852,0.6905893399151587,0.4437844229551318,0.5093403612383949,0.629321521518134,-0.1935283354473514,0.138651562082381,0.3068216968670785,0.3491929235154347,0.2419093935052126,0.077174005105756,0.9147680875815898,0.6467951199234495,0.3846431733387527,0.0775033106123397,0.6503838676586092,0.1361954785975688,0.2048928480406861,-0.2006726615285006,0.5916917545019087,796.1904761904763,807.8754578754579,804.2490842490843,796.996336996337,992.8205128205128,813.919413919414,-0.013977,-0.033081,1.003479,3.140259,-1.510315,3.297272,1.0,1.0,1.0,1.0,1.0,80.0,,1760267825.208
0.8297920369315852,0.6905893399151587,0.4437844229551318,0.5093403612383949,0.629321521518134,-0.1935283354473514,0.138651562082381,0.3068216968670785,0.3491929235154347,0.2419093935052126,0.077174005105756,0.9147680875815898,0.6467951199234495,0.3846431733387527,0.0775033106123397,0.6503838676586092,0.1361954785975688,0.2048928480406861,-0.2006726615285006,0.5916917545019087,792.5641025641025,807.0695970695971,803.8461538461539,788.9377289377289,904.1758241758242,817.1428571428571,-0.014771,-0.030945,1.001282,3.170166,-0.142059,3.050537,1.0,1.0,1.0,1.0,1.0,80.0,,1760267825.251
0.8297920369315852,0.6905893399151587,0.4437844229551318,0.5093403612383949,0.629321521518134,-0.1935283354473514,0.138651562082381,0.3068216968670785,0.3491929235154347,0.2419093935052126,0.077174005105756,0.9147680875815898,0.6467951199234495,0.3846431733387527,0.0775033106123397,0.6503838676586092,0.1361954785975688,0.2048928480406861,-0.2006726615285006,0.5916917545019087,795.3846153846154,793.7728937728938,800.2197802197802,782.4908424908425,724.8717948717949,684.981684981685,-0.014771,-0.030945,1.001282,3.170166,-0.142059,3.050537,1.0,1.0,1.0,1.0,1.0,80.0,,1760267825.251
0.8297920369315852,0.6905893399151587,0.4437844229551318,0.5093403612383949,0.629321521518134,-0.1935283354473514,0.138651562082381,0.3068216968670785,0.3491929235154347,0.2419093935052126,0.077174005105756,0.9147680875815898,0.6467951199234495,0.3846431733387527,0.0775033106123397,0.6503838676586092,0.1361954785975688,0.2048928480406861,-0.2006726615285006,0.5916917545019087,784.5054945054945,794.5787545787546,799.4139194139194,794.1758241758242,806.6666666666667,630.989010989011,-0.014771,-0.030945,1.001282,3.170166,-0.142059,3.050537,1.0,1.0,1.0,1.0,1.0,80.0,,1760267825.252
0.8297920369315852,0.6905893399151587,0.4437844229551318,0.5093403612383949,0.629321521518134,-0.1935283354473514,0.138651562082381,0.3068216968670785,0.3491929235154347,0.2419093935052126,0.077174005105756,0.9147680875815898,0.6467951199234495,0.3846431733387527,0.0775033106123397,0.6503838676586092,0.1361954785975688,0.2048928480406861,-0.2006726615285006,0.5916917545019087,785.7142857142858,803.4432234432235,802.2344322344322,805.8608058608058,921.5018315018316,877.985347985348,-0.014771,-0.030945,1.001282,3.170166,-0.142059,3.050537,1.0,1.0,1.0,1.0,1.0,80.0,,1760267825.252
0.8297920369315852,0.6905893399151587,0.4437844229551318,0.5093403612383949,0.629321521518134,-0.1935283354473514,0.138651562082381,0.3068216968670785,0.3491929235154347,0.2419093935052126,0.077174005105756,0.9147680875815898,0.6467951199234495,0.3846431733387527,0.0775033106123397,0.6503838676586092,0.1361954785975688,0.2048928480406861,-0.2006726615285006,0.5916917545019087,805.054945054945,800.2197802197802,800.6227106227107,794.1758241758242,794.5787545787546,994.4322344322344,-0.014771,-0.030945,1.001282,3.170166,-0.142059,3.050537,1.0,1.0,1.0,1.0,1.0,80.0,,1760267825.252
0.8297920369315852,0.6905893399151587,0.4437844229551318,0.5093403612383949,0.629321521518134,-0.1935283354473514,0.138651562082381,0.3068216968670785,0.3491929235154347,0.2419093935052126,0.077174005105756,0.9147680875815898,0.6467951199234495,0.3846431733387527,0.0775033106123397,0.6503838676586092,0.1361954785975688,0.2048928480406861,-0.2006726615285006,0.5916917545019087,800.2197802197802,794.1758241758242,801.8315018315019,786.9230769230769,750.2564102564103,984.3589743589744,-0.014771,-0.030945,1.001282,3.170166,-0.142059,3.050537,1.0,1.0,1.0,1.0,1.0,80.0,,1760267825.253
0.8297920369315852,0.6905893399151587,0.4437844229551318,0.5093403612383949,0.629321521518134,-0.1935283354473514,0.138651562082381,0.3068216968670785,0.3491929235154347,0.2419093935052126,0.077174005105756,0.9147680875815898,0.6467951199234495,0.3846431733387527,0.0775033106123397,0.6503838676586092,0.1361954785975688,0.2048928480406861,-0.2006726615285006,0.5916917545019087,779.6703296703297,796.5934065934066,806.2637362637363,790.1465201465202,798.2051282051282,1054.871794871795,-0.014771,-0.030945,1.001282,3.170166,-0.142059,3.050537,1.0,1.0,1.0,1.0,1.0,80.0,,1760267825.253
0.8297920369315852,0.6905893399151587,0.4437844229551318,0.5093403612383949,0.629321521518134,-0.1935283354473514,0.138651562082381,0.3068216968670785,0.3491929235154347,0.2419093935052126,0.077174005105756,0.9147680875815898,0.6467951199234495,0.3846431733387527,0.0775033106123397,0.6503838676586092,0.1361954785975688,0.2048928480406861,-0.2006726615285006,0.5916917545019087,799.0109890109891,797.8021978021978,800.6227106227107,780.4761904761905,833.2600732600733,986.7765567765568,-0.014771,-0.030945,1.001282,3.170166,-0.142059,3.050537,1.0,1.0,1.0,1.0,1.0,80.0,,1760267825.253
0.8297920369315852,0.6905893399151587,0.4437844229551318,0.5093403612383949,0.629321521518134,-0.1935283354473514,0.138651562082381,0.3068216968670785,0.3491929235154347,0.2419093935052126,0.077174005105756,0.9147680875815898,0.6467951199234495,0.3846431733387527,0.0775033106123397,0.6503838676586092,0.1361954785975688,0.2048928480406861,-0.2006726615285006,0.5916917545019087,808.6813186813187,794.1758241758242,798.6080586080586,797.8021978021978,875.9706959706959,961.3919413919414,-0.014771,-0.030945,1.001282,3.170166,-0.142059,3.050537,1.0,1.0,1.0,1.0,1.0,80.0,,1760267825.254
0.8297920369315852,0.6905893399151587,0.4437844229551318,0.5093403612383949,0.629321521518134,-0.1935283354473514,0.138651562082381,0.3068216968670785,0.3491929235154347,0.2419093935052126,0.077174005105756,0.9147680875815898,0.6467951199234495,0.3846431733387527,0.0775033106123397,0.6503838676586092,0.1361954785975688,0.2048928480406861,-0.2006726615285006,0.5916917545019087,786.5201465201466,794.1758241758242,801.025641025641,799.0109890109891,824.7985347985348,759.92673992674,-0.014771,-0.030945,1.001282,3.170166,-0.142059,3.050537,1.0,1.0,1.0,1.0,1.0,80.0,,1760267825.254
0.8297920369315852,0.6905893399151587,0.4437844229551318,0.5093403612383949,0.629321521518134,-0.1935283354473514,0.138651562082381,0.3068216968670785,0.3491929235154347,0.2419093935052126,0.077174005105756,0.9147680875815898,0.6467951199234495,0.3846431733387527,0.0775033106123397,0.6503838676586092,0.1361954785975688,0.2048928480406861,-0.2006726615285006,0.5916917545019087,784.5054945054945,799.0109890109891,800.2197802197802,788.9377289377289,763.956043956044,578.6080586080586,-0.014771,-0.030945,1.001282,3.170166,-0.142059,3.050537,1.0,1.0,1.0,1.0,1.0,80.0,,1760267825.255
0.8297920369315852,0.6905893399151587,0.4437844229551318,0.5093403612383949,0.629321521518134,-0.1935283354473514,0.138651562082381,0.3068216968670785,0.3491929235154347,0.2419093935052126,0.077174005105756,0.9147680875815898,0.6467951199234495,0.3846431733387527,0.0775033106123397,0.6503838676586092,0.1361954785975688,0.2048928480406861,-0.2006726615285006,0.5916917545019087,799.4139194139194,794.5787545787546,800.6227106227107,794.1758241758242,779.2673992673992,545.9706959706959,-0.014771,-0.030945,1.001282,3.170166,-0.142059,3.050537,1.0,1.0,1.0,1.0,1.0,80.0,,1760267825.255
0.8297920369315852,0.6905893399151587,0.4437844229551318,0.5093403612383949,0.629321521518134,-0.1935283354473514,0.138651562082381,0.3068216968670785,0.3491929235154347,0.2419093935052126,0.077174005105756,0.9147680875815898,0.6467951199234495,0.3846431733387527,0.0775033106123397,0.6503838676586092,0.1361954785975688,0.2048928480406861,-0.2006726615285006,0.5916917545019087,792.5641025641025,799.4139194139194,803.4432234432235,799.0109890109891,746.6300366300367,635.0183150183151,-0.015198,-0.031738,0.994629,3.454285,0.777588,3.072968,1.0,1.0,1.0,1.0,1.0,80.0,,1760267825.299
0.8297920369315852,0.6905893399151587,0.4437844229551318,0.5093403612383949,0.629321521518134,-0.1935283354473514,0.138651562082381,0.3068216968670785,0.3491929235154347,0.2419093935052126,0.077174005105756,0.9147680875815898,0.6467951199234495,0.3846431733387527,0.0775033106123397,0.6503838676586092,0.1361954785975688,0.2048928480406861,-0.2006726615285006,0.5916917545019087,781.2820512820513,801.025641025641,800.6227106227107,807.8754578754579,718.021978021978,661.2087912087912,-0.015198,-0.031738,0.994629,3.454285,0.777588,3.072968,1.0,1.0,1.0,1.0,1.0,80.0,,1760267825.299
0.8297920369315852,0.6905893399151587,0.4437844229551318,0.5093403612383949,0.629321521518134,-0.1935283354473514,0.138651562082381,0.3068216968670785,0.3491929235154347,0.2419093935052126,0.077174005105756,0.9147680875815898,0.6467951199234495,0.3846431733387527,0.0775033106123397,0.6503838676586092,0.1361954785975688,0.2048928480406861,-0.2006726615285006,0.5916917545019087,779.2673992673992,796.996336996337,800.2197802197802,809.0842490842491,667.2527472527473,518.974358974359,-0.015198,-0.031738,0.994629,3.454285,0.777588,3.072968,1.0,1.0,1.0,1.0,1.0,80.0,,1760267825.3
0.8297920369315852,0.6905893399151587,0.4437844229551318,0.5093403612383949,0.629321521518134,-0.1935283354473514,0.138651562082381,0.3068216968670785,0.3491929235154347,0.2419093935052126,0.077174005105756,0.9147680875815898,0.6467951199234495,0.3846431733387527,0.0775033106123397,0.6503838676586092,0.1361954785975688,0.2048928480406861,-0.2006726615285006,0.5916917545019087,789.7435897435897,796.996336996337,804.6520146520147,788.9377289377289,686.1904761904763,459.3406593406593,-0.015198,-0.031738,0.994629,3.454285,0.777588,3.072968,1.0,1.0,1.0,1.0,1.0,80.0,,1760267825.3
0.8297920369315852,0.6905893399151587,0.4437844229551318,0.5093403612383949,0.629321521518134,-0.1935283354473514,0.138651562082381,0.3068216968670785,0.3491929235154347,0.2419093935052126,0.077174005105756,0.9147680875815898,0.6467951199234495,0.3846431733387527,0.0775033106123397,0.6503838676586092,0.1361954785975688,0.2048928480406861,-0.2006726615285006,0.5916917545019087,778.4615384615385,796.5934065934066,799.8168498168499,783.2967032967033,784.5054945054945,721.2454212454213,-0.015198,-0.031738,0.994629,3.454285,0.777588,3.072968,1.0,1.0,1.0,1.0,1.0,80.0,,1760267825.3
0.8297920369315852,0.6905893399151587,0.4437844229551318,0.5093403612383949,0.629321521518134,-0.1935283354473514,0.138651562082381,0.3068216968670785,0.3491929235154347,0.2419093935052126,0.077174005105756,0.9147680875815898,0.6467951199234495,0.3846431733387527,0.0775033106123397,0.6503838676586092,0.1361954785975688,0.2048928480406861,-0.2006726615285006,0.5916917545019087,780.0732600732601,801.8315018315019,802.2344322344322,799.0109890109891,790.5494505494506,981.1355311355312,-0.015198,-0.031738,0.994629,3.454285,0.777588,3.072968,1.0,1.0,1.0,1.0,1.0,80.0,,1760267825.301
0.8297920369315852,0.6905893399151587,0.4437844229551318,0.5093403612383949,0.629321521518134,-0.1935283354473514,0.138651562082381,0.3068216968670785,0.3491929235154347,0.2419093935052126,0.077174005105756,0.9147680875815898,0.6467951199234495,0.3846431733387527,0.0775033106123397,0.6503838676586092,0.1361954785975688,0.2048928480406861,-0.2006726615285006,0.5916917545019087,788.5347985347986,810.2930402930403,807.8754578754579,803.040293040293,765.1648351648352,1139.89010989011,-0.015198,-0.031738,0.994629,3.454285,0.777588,3.072968,1.0,1.0,1.0,1.0,1.0,80.0,,1760267825.301
0.8297920369315852,0.6905893399151587,0.4437844229551318,0.5093403612383949,0.629321521518134,-0.1935283354473514,0.138651562082381,0.3068216968670785,0.3491929235154347,0.2419093935052126,0.077174005105756,0.9147680875815898,0.6467951199234495,0.3846431733387527,0.0775033106123397,0.6503838676586092,0.1361954785975688,0.2048928480406861,-0.2006726615285006,0.5916917545019087,790.5494505494506,804.6520146520147,799.8168498168499,801.4285714285714,759.92673992674,923.5164835164836,-0.015198,-0.031738,0.994629,3.454285,0.777588,3.072968,1.0,1.0,1.0,1.0,1.0,80.0,,1760267825.302
0.8297920369315852,0.6905893399151587,0.4437844229551318,0.5093403612383949,0.629321521518134,-0.1935283354473514,0.138651562082381,0.3068216968670785,0.3491929235154347,0.2419093935052126,0.077174005105756,0.9147680875815898,0.6467951199234495,0.3846431733387527,0.0775033106123397,0.6503838676586092,0.1361954785975688,0.2048928480406861,-0.2006726615285006,0.5916917545019087,807.0695970695971,792.5641025641025,796.5934065934066,822.3809523809524,731.3186813186813,680.952380952381,-0.015198,-0.031738,0.994629,3.454285,0.777588,3.072968,1.0,1.0,1.0,1.0,1.0,80.0,,1760267825.302
0.8297920369315852,0.6843347767705948,0.4395311959639748,0.5087217041640566,0.629321521518134,-0.1711643912615861,0.1308715971470956,0.3050453332553635,0.3491929235154347,0.2406791288165629,0.1023739773404896,0.9147680875815898,0.6467951199234495,0.3244970448459405,0.0334893178844603,0.6658852766723746,0.1361954785975688,0.0818668229304811,-0.3449055346358776,0.6060765078563732,787.7289377289378,796.1904761904763,800.6227106227107,832.0512820512821,730.1098901098901,850.5860805860806,-0.015198,-0.031738,0.994629,3.454285,0.777588,3.072968,1.0,1.0,1.0,1.0,1.0,80.0,,1760267825.302
0.8297920369315852,0.6843347767705948,0.4395311959639748,0.5087217041640566,0.629321521518134,-0.1711643912615861,0.1308715971470956,0.3050453332553635,0.3491929235154347,0.2406791288165629,0.1023739773404896,0.9147680875815898,0.6467951199234495,0.3244970448459405,0.0334893178844603,0.6658852766723746,0.1361954785975688,0.0818668229304811,-0.3449055346358776,0.6060765078563732,800.2197802197802,807.4725274725275,809.8901098901099,819.1575091575091,734.945054945055,659.5970695970697,-0.015198,-0.031738,0.994629,3.454285,0.777588,3.072968,1.0,1.0,1.0,1.0,1.0,80.0,,1760267825.303
0.8297920369315852,0.6843347767705948,0.4395311959639748,0.5087217041640566,0.629321521518134,-0.1711643912615861,0.1308715971470956,0.3050453332553635,0.3491929235154347,0.2406791288165629,0.1023739773404896,0.9147680875815898,0.6467951199234495,0.3244970448459405,0.0334893178844603,0.6658852766723746,0.1361954785975688,0.0818668229304811,-0.3449055346358776,0.6060765078563732,822.3809523809524,800.2197802197802,810.6959706959707,809.0842490842491,715.6043956043957,527.8388278388279,-0.015198,-0.031738,0.994629,3.454285,0.777588,3.072968,1.0,1.0,1.0,1.0,1.0,80.0,,1760267825.304
0.8297920369315852,0.6843347767705948,0.4395311959639748,0.5087217041640566,0.629321521518134,-0.1711643912615861,0.1308715971470956,0.3050453332553635,0.3491929235154347,0.2406791288165629,0.1023739773404896,0.9147680875815898,0.6467951199234495,0.3244970448459405,0.0334893178844603,0.6658852766723746,0.1361954785975688,0.0818668229304811,-0.3449055346358776,0.6060765078563732,818.7545787545788,797.3992673992674,799.0109890109891,806.2637362637363,753.8827838827839,806.2637362637363,-0.013977,-0.029846,0.99176,3.072968,0.979462,3.39447,1.0,1.0,1.0,1.0,1.0,80.0,,1760267825.325
0.8297920369315852,0.6843347767705948,0.4395311959639748,0.5087217041640566,0.629321521518134,-0.1711643912615861,0.1308715971470956,0.3050453332553635,0.3491929235154347,0.2406791288165629,0.1023739773404896,0.9147680875815898,0.6467951199234495,0.3244970448459405,0.0334893178844603,0.6658852766723746,0.1361954785975688,0.0818668229304811,-0.3449055346358776,0.6060765078563732,807.0695970695971,796.996336996337,796.996336996337,802.6373626373627,744.2124542124542,701.0989010989011,-0.013977,-0.029846,0.99176,3.072968,0.979462,3.39447,1.0,1.0,1.0,1.0,1.0,80.0,,1760267825.326
0.8297920369315852,0.6843347767705948,0.4395311959639748,0.5087217041640566,0.629321521518134,-0.1711643912615861,0.1308715971470956,0.3050453332553635,0.3491929235154347,0.2406791288165629,0.1023739773404896,0.9147680875815898,0.6467951199234495,0.3244970448459405,0.0334893178844603,0.6658852766723746,0.1361954785975688,0.0818668229304811,-0.3449055346358776,0.6060765078563732,804.6520146520147,794.5787545787546,792.967032967033,805.054945054945,746.2271062271062,608.4249084249085,-0.013977,-0.029846,0.99176,3.072968,0.979462,3.39447,1.0,1.0,1.0,1.0,1.0,80.0,,1760267825.326
0.8297920369315852,0.6843347767705948,0.4395311959639748,0.5087217041640566,0.629321521518134,-0.1711643912615861,0.1308715971470956,0.3050453332553635,0.3491929235154347,0.2406791288165629,0.1023739773404896,0.9147680875815898,0.6467951199234495,0.3244970448459405,0.0334893178844603,0.6658852766723746,0.1361954785975688,0.0818668229304811,-0.3449055346358776,0.6060765078563732,805.4578754578755,795.7875457875458,801.4285714285714,786.5201465201466,768.3882783882784,875.5677655677656,-0.013977,-0.029846,0.99176,3.072968,0.979462,3.39447,1.0,1.0,1.0,1.0,1.0,80.0,,1760267825.327
0.8297920369315852,0.6843347767705948,0.4395311959639748,0.5087217041640566,0.629321521518134,-0.1711643912615861,0.1308715971470956,0.3050453332553635,0.3491929235154347,0.2406791288165629,0.1023739773404896,0.9147680875815898,0.6467951199234495,0.3244970448459405,0.0334893178844603,0.6658852766723746,0.1361954785975688,0.0818668229304811,-0.3449055346358776,0.6060765078563732,795.3846153846154,794.981684981685,800.6227106227107,788.1318681318681,788.9377289377289,933.1868131868132,-0.013977,-0.029846,0.99176,3.072968,0.979462,3.39447,1.0,1.0,1.0,1.0,1.0,80.0,,1760267825.327
0.8297920369315852,0.6843347767705948,0.4395311959639748,0.5087217041640566,0.629321521518134,-0.1711643912615861,0.1308715971470956,0.3050453332553635,0.3491929235154347,0.2406791288165629,0.1023739773404896,0.9147680875815898,0.6467951199234495,0.3244970448459405,0.0334893178844603,0.6658852766723746,0.1361954785975688,0.0818668229304811,-0.3449055346358776,0.6060765078563732,796.1904761904763,796.996336996337,791.7582417582418,816.7399267399268,837.2893772893773,983.956043956044,-0.013977,-0.029846,0.99176,3.072968,0.979462,3.39447,1.0,1.0,1.0,1.0,1.0,80.0,,1760267825.328
0.8297920369315852,0.6843347767705948,0.4395311959639748,0.5087217041640566,0.629321521518134,-0.1711643912615861,0.1308715971470956,0.3050453332553635,0.3491929235154347,0.2406791288165629,0.1023739773404896,0.9147680875815898,0.6467951199234495,0.3244970448459405,0.0334893178844603,0.6658852766723746,0.1361954785975688,0.0818668229304811,-0.3449055346358776,0.6060765078563732,769.1941391941392,802.6373626373627,804.2490842490843,801.4285714285714,828.021978021978,1168.498168498169,-0.013977,-0.029846,0.99176,3.072968,0.979462,3.39447,1.0,1.0,1.0,1.0,1.0,80.0,,1760267825.328
0.8297920369315852,0.6843347767705948,0.4395311959639748,0.5087217041640566,0.629321521518134,-0.1711643912615861,0.1308715971470956,0.3050453332553635,0.3491929235154347,0.2406791288165629,0.1023739773404896,0.9147680875815898,0.6467951199234495,0.3244970448459405,0.0334893178844603,0.6658852766723746,0.1361954785975688,0.0818668229304811,-0.3449055346358776,0.6060765078563732,777.6556776556777,803.4432234432235,803.040293040293,797.3992673992674,839.7069597069598,963.4065934065934,-0.013977,-0.029846,0.99176,3.072968,0.979462,3.39447,1.0,1.0,1.0,1.0,1.0,80.0,,1760267825.328
0.8297920369315852,0.6843347767705948,0.4395311959639748,0.5087217041640566,0.629321521518134,-0.1711643912615861,0.1308715971470956,0.3050453332553635,0.3491929235154347,0.2406791288165629,0.1023739773404896,0.9147680875815898,0.6467951199234495,0.3244970448459405,0.0334893178844603,0.6658852766723746,0.1361954785975688,0.0818668229304811,-0.3449055346358776,0.6060765078563732,811.0989010989011,801.4285714285714,799.8168498168499,797.8021978021978,866.7032967032967,731.7216117216118,-0.013977,-0.029846,0.99176,3.072968,0.979462,3.39447,1.0,1.0,1.0,1.0,1.0,80.0,,1760267825.329
0.8297920369315852,0.6843347767705948,0.4395311959639748,0.5087217041640566,0.629321521518134,-0.1711643912615861,0.1308715971470956,0.3050453332553635,0.3491929235154347,0.2406791288165629,0.1023739773404896,0.9147680875815898,0.6467951199234495,0.3244970448459405,0.0334893178844603,0.6658852766723746,0.1361954785975688,0.0818668229304811,-0.3449055346358776,0.6060765078563732,805.8608058608058,803.040293040293,798.2051282051282,799.8168498168499,765.9706959706959,676.5201465201466,-0.013977,-0.029846,0.99176,3.072968,0.979462,3.39447,1.0,1.0,1.0,1.0,1.0,80.0,,1760267825.329
0.8297920369315852,0.6843347767705948,0.4395311959639748,0.5087217041640566,0.629321521518134,-0.1711643912615861,0.1308715971470956,0.3050453332553635,0.3491929235154347,0.2406791288165629,0.1023739773404896,0.9147680875815898,0.6467951199234495,0.3244970448459405,0.0334893178844603,0.6658852766723746,0.1361954785975688,0.0818668229304811,-0.3449055346358776,0.6060765078563732,797.8021978021978,796.5934065934066,795.7875457875458,786.1172161172161,730.5128205128206,505.6776556776557,-0.013977,-0.029846,0.99176,3.072968,0.979462,3.39447,1.0,1.0,1.0,1.0,1.0,80.0,,1760267825.329
0.8297920369315852,0.6843347767705948,0.4395311959639748,0.5087217041640566,0.629321521518134,-0.1711643912615861,0.1308715971470956,0.3050453332553635,0.3491929235154347,0.2406791288165629,0.1023739773404896,0.9147680875815898,0.6467951199234495,0.3244970448459405,0.0334893178844603,0.6658852766723746,0.1361954785975688,0.0818668229304811,-0.3449055346358776,0.6060765078563732,794.1758241758242,796.5934065934066,794.5787545787546,780.0732600732601,754.2857142857143,651.1355311355312,-0.013977,-0.029846,0.99176,3.072968,0.979462,3.39447,1.0,1.0,1.0,1.0,1.0,80.0,,1760267825.33
0.8297920369315852,0.6843347767705948,0.4395311959639748,0.5087217041640566,0.629321521518134,-0.1711643912615861,0.1308715971470956,0.3050453332553635,0.3491929235154347,0.2406791288165629,0.1023739773404896,0.9147680875815898,0.6467951199234495,0.3244970448459405,0.0334893178844603,0.6658852766723746,0.1361954785975688,0.0818668229304811,-0.3449055346358776,0.6060765078563732,781.6849816849817,798.2051282051282,788.9377289377289,798.6080586080586,738.974358974359,854.6153846153846,-0.019714,-0.026978,0.992004,3.334656,0.979462,4.239349,1.0,1.0,1.0,1.0,1.0,80.0,,1760267825.395
0.8297920369315852,0.6843347767705948,0.4395311959639748,0.5087217041640566,0.629321521518134,-0.1711643912615861,0.1308715971470956,0.3050453332553635,0.3491929235154347,0.2406791288165629,0.1023739773404896,0.9147680875815898,0.6467951199234495,0.3244970448459405,0.0334893178844603,0.6658852766723746,0.1361954785975688,0.0818668229304811,-0.3449055346358776,0.6060765078563732,786.1172161172161,800.2197802197802,798.2051282051282,782.893772893773,767.1794871794872,680.5494505494506,-0.019714,-0.026978,0.992004,3.334656,0.979462,4.239349,1.0,1.0,1.0,1.0,1.0,80.0,,1760267825.396
0.8297920369315852,0.6843347767705948,0.4395311959639748,0.5087217041640566,0.629321521518134,-0.1711643912615861,0.1308715971470956,0.3050453332553635,0.3491929235154347,0.2406791288165629,0.1023739773404896,0.9147680875815898,0.6467951199234495,0.3244970448459405,0.0334893178844603,0.6658852766723746,0.1361954785975688,0.0818668229304811,-0.3449055346358776,0.6060765078563732,803.040293040293,801.8315018315019,802.2344322344322,776.4468864468864,824.7985347985348,664.0293040293041,-0.019714,-0.026978,0.992004,3.334656,0.979462,4.239349,1.0,1.0,1.0,1.0,1.0,80.0,,1760267825.396
0.8297920369315852,0.6843347767705948,0.4395311959639748,0.5087217041640566,0.629321521518134,-0.1711643912615861,0.1308715971470956,0.3050453332553635,0.3491929235154347,0.2406791288165629,0.1023739773404896,0.9147680875815898,0.6467951199234495,0.3244970448459405,0.0334893178844603,0.6658852766723746,0.1361954785975688,0.0818668229304811,-0.3449055346358776,0.6060765078563732,779.6703296703297,800.2197802197802,791.7582417582418,803.4432234432235,754.2857142857143,595.1282051282052,-0.019714,-0.026978,0.992004,3.334656,0.979462,4.239349,1.0,1.0,1.0,1.0,1.0,80.0,,1760267825.396
0.8297920369315852,0.6843347767705948,0.4395311959639748,0.5087217041640566,0.629321521518134,-0.1711643912615861,0.1308715971470956,0.3050453332553635,0.3491929235154347,0.2406791288165629,0.1023739773404896,0.9147680875815898,0.6467951199234495,0.3244970448459405,0.0334893178844603,0.6658852766723746,0.1361954785975688,0.0818668229304811,-0.3449055346358776,0.6060765078563732,780.4761904761905,797.8021978021978,793.7728937728938,806.2637362637363,699.8901098901099,614.4688644688645,-0.019714,-0.026978,0.992004,3.334656,0.979462,4.239349,1.0,1.0,1.0,1.0,1.0,80.0,,1760267825.397
0.8297920369315852,0.6843347767705948,0.4395311959639748,0.5087217041640566,0.629321521518134,-0.1711643912615861,0.1308715971470956,0.3050453332553635,0.3491929235154347,0.2406791288165629,0.1023739773404896,0.9147680875815898,0.6467951199234495,0.3244970448459405,0.0334893178844603,0.6658852766723746,0.1361954785975688,0.0818668229304811,-0.3449055346358776,0.6060765078563732,788.1318681318681,799.0109890109891,794.5787545787546,787.3260073260074,735.3479853479854,940.03663003663,-0.019714,-0.026978,0.992004,3.334656,0.979462,4.239349,1.0,1.0,1.0,1.0,1.0,80.0,,1760267825.397
0.8297920369315852,0.6843347767705948,0.4395311959639748,0.5087217041640566,0.629321521518134,-0.1711643912615861,0.1308715971470956,0.3050453332553635,0.3491929235154347,0.2406791288165629,0.1023739773404896,0.9147680875815898,0.6467951199234495,0.3244970448459405,0.0334893178844603,0.6658852766723746,0.1361954785975688,0.0818668229304811,-0.3449055346358776,0.6060765078563732,776.4468864468864,800.6227106227107,792.5641025641025,787.7289377289378,735.7509157509157,1065.347985347985,-0.019714,-0.026978,0.992004,3.334656,0.979462,4.239349,1.0,1.0,1.0,1.0,1.0,80.0,,1760267825.398
0.8297920369315852,0.6843347767705948,0.4395311959639748,0.5087217041640566,0.629321521518134,-0.1711643912615861,0.1308715971470956,0.3050453332553635,0.3491929235154347,0.2406791288165629,0.1023739773404896,0.9147680875815898,0.6467951199234495,0.3244970448459405,0.0334893178844603,0.6658852766723746,0.1361954785975688,0.0818668229304811,-0.3449055346358776,0.6060765078563732,779.2673992673992,796.1904761904763,788.5347985347986,786.9230769230769,787.7289377289378,793.7728937728938,-0.019714,-0.026978,0.992004,3.334656,0.979462,4.239349,1.0,1.0,1.0,1.0,1.0,80.0,,1760267825.398
0.8297920369315852,0.6843347767705948,0.4395311959639748,0.5087217041640566,0.629321521518134,-0.1711643912615861,0.1308715971470956,0.3050453332553635,0.3491929235154347,0.2406791288165629,0.1023739773404896,0.9147680875815898,0.6467951199234495,0.3244970448459405,0.0334893178844603,0.6658852766723746,0.1361954785975688,0.0818668229304811,-0.3449055346358776,0.6060765078563732,793.3699633699634,793.7728937728938,790.5494505494506,794.981684981685,839.3040293040293,744.2124542124542,-0.019714,-0.026978,0.992004,3.334656,0.979462,4.239349,1.0,1.0,1.0,1.0,1.0,80.0,,1760267825.398
0.8297920369315852,0.6843347767705948,0.4395311959639748,0.5087217041640566,0.629321521518134,-0.1711643912615861,0.1308715971470956,0.3050453332553635,0.3491929235154347,0.2406791288165629,0.1023739773404896,0.9147680875815898,0.6467951199234495,0.3244970448459405,0.0334893178844603,0.6658852766723746,0.1361954785975688,0.0818668229304811,-0.3449055346358776,0.6060765078563732,783.6996336996338,790.1465201465202,802.2344322344322,794.1758241758242,826.007326007326,754.2857142857143,-0.019714,-0.026978,0.992004,3.334656,0.979462,4.239349,1.0,1.0,1.0,1.0,1.0,80.0,,1760267825.399
0.8297920369315852,0.6843347767705948,0.4395311959639748,0.5087217041640566,0.629321521518134,-0.1711643912615861,0.1308715971470956,0.3050453332553635,0.3491929235154347,0.2406791288165629,0.1023739773404896,0.9147680875815898,0.6467951199234495,0.3244970448459405,0.0334893178844603,0.6658852766723746,0.1361954785975688,0.0818668229304811,-0.3449055346358776,0.6060765078563732,787.7289377289378,793.7728937728938,798.2051282051282,790.1465201465202,753.0769230769231,669.6703296703297,-0.019714,-0.026978,0.992004,3.334656,0.979462,4.239349,1.0,1.0,1.0,1.0,1.0,80.0,,1760267825.399
0.8297920369315852,0.6706070917008332,0.4330422823882423,0.5087217041640566,0.629321521518134,-0.1607150247928708,0.1129587808517719,0.3050453332553635,0.3491929235154347,0.2314195912140241,0.1028772199593834,0.9147680875815898,0.6467951199234495,0.2629619959666133,0.0010704754485042,0.6658852766723746,0.1361954785975688,-0.0355378191988055,-0.4725807911375441,0.6060765078563732,797.3992673992674,804.2490842490843,788.9377289377289,804.2490842490843,719.2307692307693,644.6886446886447,-0.019714,-0.026978,0.992004,3.334656,0.979462,4.239349,1.0,1.0,1.0,1.0,1.0,80.0,,1760267825.399
0.8297920369315852,0.6706070917008332,0.4330422823882423,0.5087217041640566,0.629321521518134,-0.1607150247928708,0.1129587808517719,0.3050453332553635,0.3491929235154347,0.2314195912140241,0.1028772199593834,0.9147680875815898,0.6467951199234495,0.2629619959666133,0.0010704754485042,0.6658852766723746,0.1361954785975688,-0.0355378191988055,-0.4725807911375441,0.6060765078563732,789.3406593406594,801.025641025641,790.1465201465202,811.0989010989011,789.7435897435897,668.8644688644689,-0.018555,-0.02002,1.001648,2.631836,0.5159,3.177643,1.0,1.0,1.0,1.0,1.0,80.0,,1760267825.422
0.8297920369315852,0.6706070917008332,0.4330422823882423,0.5087217041640566,0.629321521518134,-0.1607150247928708,0.1129587808517719,0.3050453332553635,0.3491929235154347,0.2314195912140241,0.1028772199593834,0.9147680875815898,0.6467951199234495,0.2629619959666133,0.0010704754485042,0.6658852766723746,0.1361954785975688,-0.0355378191988055,-0.4725807911375441,0.6060765078563732,805.8608058608058,796.1904761904763,791.3553113553114,810.2930402930403,797.8021978021978,818.3516483516484,-0.018555,-0.02002,1.001648,2.631836,0.5159,3.177643,1.0,1.0,1.0,1.0,1.0,80.0,,1760267825.422
0.8297920369315852,0.6706070917008332,0.4330422823882423,0.5087217041640566,0.629321521518134,-0.1607150247928708,0.1129587808517719,0.3050453332553635,0.3491929235154347,0.2314195912140241,0.1028772199593834,0.9147680875815898,0.6467951199234495,0.2629619959666133,0.0010704754485042,0.6658852766723746,0.1361954785975688,-0.0355378191988055,-0.4725807911375441,0.6060765078563732,804.6520146520147,799.4139194139194,792.1611721611722,808.2783882783883,741.3919413919414,809.0842490842491,-0.018555,-0.02002,1.001648,2.631836,0.5159,3.177643,1.0,1.0,1.0,1.0,1.0,80.0,,1760267825.423
0.8297920369315852,0.6706070917008332,0.4330422823882423,0.5087217041640566,0.629321521518134,-0.1607150247928708,0.1129587808517719,0.3050453332553635,0.3491929235154347,0.2314195912140241,0.1028772199593834,0.9147680875815898,0.6467951199234495,0.2629619959666133,0.0010704754485042,0.6658852766723746,0.1361954785975688,-0.0355378191988055,-0.4725807911375441,0.6060765078563732,809.4871794871796,804.6520146520147,788.5347985347986,805.8608058608058,732.5274725274726,787.3260073260074,-0.018555,-0.02002,1.001648,2.631836,0.5159,3.177643,1.0,1.0,1.0,1.0,1.0,80.0,,1760267825.423
0.8297920369315852,0.6706070917008332,0.4330422823882423,0.5087217041640566,0.629321521518134,-0.1607150247928708,0.1129587808517719,0.3050453332553635,0.3491929235154347,0.2314195912140241,0.1028772199593834,0.9147680875815898,0.6467951199234495,0.2629619959666133,0.0010704754485042,0.6658852766723746,0.1361954785975688,-0.0355378191988055,-0.4725807911375441,0.6060765078563732,819.1575091575091,805.8608058608058,797.8021978021978,808.2783882783883,722.4542124542124,865.4945054945056,-0.018555,-0.02002,1.001648,2.631836,0.5159,3.177643,1.0,1.0,1.0,1.0,1.0,80.0,,1760267825.424
0.8297920369315852,0.6706070917008332,0.4330422823882423,0.5087217041640566,0.629321521518134,-0.1607150247928708,0.1129587808517719,0.3050453332553635,0.3491929235154347,0.2314195912140241,0.1028772199593834,0.9147680875815898,0.6467951199234495,0.2629619959666133,0.0010704754485042,0.6658852766723746,0.1361954785975688,-0.0355378191988055,-0.4725807911375441,0.6060765078563732,812.7106227106227,806.6666666666667,803.8461538461539,798.2051282051282,703.1135531135532,911.4285714285714,-0.018555,-0.02002,1.001648,2.631836,0.5159,3.177643,1.0,1.0,1.0,1.0,1.0,80.0,,1760267825.424
0.8297920369315852,0.6706070917008332,0.4330422823882423,0.5087217041640566,0.629321521518134,-0.1607150247928708,0.1129587808517719,0.3050453332553635,0.3491929235154347,0.2314195912140241,0.1028772199593834,0.9147680875815898,0.6467951199234495,0.2629619959666133,0.0010704754485042,0.6658852766723746,0.1361954785975688,-0.0355378191988055,-0.4725807911375441,0.6060765078563732,807.4725274725275,806.2637362637363,793.3699633699634,799.0109890109891,803.040293040293,1143.113553113553,-0.018555,-0.02002,1.001648,2.631836,0.5159,3.177643,1.0,1.0,1.0,1.0,1.0,80.0,,1760267825.424
0.8297920369315852,0.6706070917008332,0.4330422823882423,0.5087217041640566,0.629321521518134,-0.1607150247928708,0.1129587808517719,0.3050453332553635,0.3491929235154347,0.2314195912140241,0.1028772199593834,0.9147680875815898,0.6467951199234495,0.2629619959666133,0.0010704754485042,0.6658852766723746,0.1361954785975688,-0.0355378191988055,-0.4725807911375441,0.6060765078563732,801.8315018315019,803.8461538461539,793.3699633699634,809.4871794871796,913.040293040293,985.1648351648352,-0.018555,-0.02002,1.001648,2.631836,0.5159,3.177643,1.0,1.0,1.0,1.0,1.0,80.0,,1760267825.425
0.8297920369315852,0.6706070917008332,0.4330422823882423,0.5087217041640566,0.629321521518134,-0.1607150247928708,0.1129587808517719,0.3050453332553635,0.3491929235154347,0.2314195912140241,0.1028772199593834,0.9147680875815898,0.6467951199234495,0.2629619959666133,0.0010704754485042,0.6658852766723746,0.1361954785975688,-0.0355378191988055,-0.4725807911375441,0.6060765078563732,805.8608058608058,805.4578754578755,796.996336996337,812.3076923076924,922.3076923076924,775.2380952380953,-0.018555,-0.02002,1.001648,2.631836,0.5159,3.177643,1.0,1.0,1.0,1.0,1.0,80.0,,1760267825.425
0.8297920369315852,0.6706070917008332,0.4330422823882423,0.5087217041640566,0.629321521518134,-0.1607150247928708,0.1129587808517719,0.3050453332553635,0.3491929235154347,0.2314195912140241,0.1028772199593834,0.9147680875815898,0.6467951199234495,0.2629619959666133,0.0010704754485042,0.6658852766723746,0.1361954785975688,-0.0355378191988055,-0.4725807911375441,0.6060765078563732,799.4139194139194,804.6520146520147,800.6227106227107,818.7545787545788,826.8131868131868,697.4725274725275,-0.018555,-0.02002,1.001648,2.631836,0.5159,3.177643,1.0,1.0,1.0,1.0,1.0,80.0,,1760267825.425
0.8297920369315852,0.6706070917008332,0.4330422823882423,0.5087217041640566,0.629321521518134,-0.1607150247928708,0.1129587808517719,0.3050453332553635,0.3491929235154347,0.2314195912140241,0.1028772199593834,0.9147680875815898,0.6467951199234495,0.2629619959666133,0.0010704754485042,0.6658852766723746,0.1361954785975688,-0.0355378191988055,-0.4725807911375441,0.6060765078563732,799.4139194139194,799.0109890109891,796.996336996337,802.6373626373627,739.7802197802198,524.6153846153846,-0.018555,-0.02002,1.001648,2.631836,0.5159,3.177643,1.0,1.0,1.0,1.0,1.0,80.0,,1760267825.426
0.8297920369315852,0.6706070917008332,0.4330422823882423,0.5087217041640566,0.629321521518134,-0.1607150247928708,0.1129587808517719,0.3050453332553635,0.3491929235154347,0.2314195912140241,0.1028772199593834,0.9147680875815898,0.6467951199234495,0.2629619959666133,0.0010704754485042,0.6658852766723746,0.1361954785975688,-0.0355378191988055,-0.4725807911375441,0.6060765078563732,809.8901098901099,796.1904761904763,792.1611721611722,808.2783882783883,738.974358974359,484.7252747252747,-0.018555,-0.02002,1.001648,2.631836,0.5159,3.177643,1.0,1.0,1.0,1.0,1.0,80.0,,1760267825.426
0.8297920369315852,0.6706070917008332,0.4330422823882423,0.5087217041640566,0.629321521518134,-0.1607150247928708,0.1129587808517719,0.3050453332553635,0.3491929235154347,0.2314195912140241,0.1028772199593834,0.9147680875815898,0.6467951199234495,0.2629619959666133,0.0010704754485042,0.6658852766723746,0.1361954785975688,-0.0355378191988055,-0.4725807911375441,0.6060765078563732,818.3516483516484,805.8608058608058,794.981684981685,811.5018315018315,793.3699633699634,642.2710622710623,-0.018555,-0.02002,1.001648,2.631836,0.5159,3.177643,1.0,1.0,1.0,1.0,1.0,80.0,,1760267825.47
0.8297920369315852,0.6706070917008332,0.4330422823882423,0.5087217041640566,0.629321521518134,-0.1607150247928708,0.1129587808517719,0.3050453332553635,0.3491929235154347,0.2314195912140241,0.1028772199593834,0.9147680875815898,0.6467951199234495,0.2629619959666133,0.0010704754485042,0.6658852766723746,0.1361954785975688,-0.0355378191988055,-0.4725807911375441,0.6060765078563732,808.2783882783883,809.4871794871796,799.8168498168499,784.1025641025641,828.8278388278388,726.4835164835165,-0.018555,-0.02002,1.001648,2.631836,0.5159,3.177643,1.0,1.0,1.0,1.0,1.0,80.0,,1760267825.47
0.8297920369315852,0.6706070917008332,0.4330422823882423,0.5087217041640566,0.629321521518134,-0.1607150247928708,0.1129587808517719,0.3050453332553635,0.3491929235154347,0.2314195912140241,0.1028772199593834,0.9147680875815898,0.6467951199234495,0.2629619959666133,0.0010704754485042,0.6658852766723746,0.1361954785975688,-0.0355378191988055,-0.4725807911375441,0.6060765078563732,804.2490842490843,801.4285714285714,799.0109890109891,794.981684981685,871.1355311355312,683.7728937728938,-0.018555,-0.02002,1.001648,2.631836,0.5159,3.177643,1.0,1.0,1.0,1.0,1.0,80.0,,1760267825.47
0.8297920369315852,0.6706070917008332,0.4330422823882423,0.5087217041640566,0.629321521518134,-0.1607150247928708,0.1129587808517719,0.3050453332553635,0.3491929235154347,0.2314195912140241,0.1028772199593834,0.9147680875815898,0.6467951199234495,0.2629619959666133,0.0010704754485042,0.6658852766723746,0.1361954785975688,-0.0355378191988055,-0.4725807911375441,0.6060765078563732,813.5164835164835,799.8168498168499,794.1758241758242,823.5897435897436,833.2600732600733,581.025641025641,-0.018555,-0.02002,1.001648,2.631836,0.5159,3.177643,1.0,1.0,1.0,1.0,1.0,80.0,,1760267825.471
0.8297920369315852,0.6706070917008332,0.4330422823882423,0.5087217041640566,0.629321521518134,-0.1607150247928708,0.1129587808517719,0.3050453332553635,0.3491929235154347,0.2314195912140241,0.1028772199593834,0.9147680875815898,0.6467951199234495,0.2629619959666133,0.0010704754485042,0.6658852766723746,0.1361954785975688,-0.0355378191988055,-0.4725807911375441,0.6060765078563732,798.2051282051282,810.2930402930403,799.4139194139194,809.4871794871796,757.9120879120879,838.0952380952381,-0.018555,-0.02002,1.001648,2.631836,0.5159,3.177643,1.0,1.0,1.0,1.0,1.0,80.0,,1760267825.472
0.8297920369315852,0.6706070917008332,0.4330422823882423,0.5087217041640566,0.629321521518134,-0.1607150247928708,0.1129587808517719,0.3050453332553635,0.3491929235154347,0.2314195912140241,0.1028772199593834,0.9147680875815898,0.6467951199234495,0.2629619959666133,0.0010704754485042,0.6658852766723746,0.1361954785975688,-0.0355378191988055,-0.4725807911375441,0.6060765078563732,783.2967032967033,811.9047619047619,798.6080586080586,794.981684981685,726.886446886447,1156.007326007326,-0.018555,-0.02002,1.001648,2.631836,0.5159,3.177643,1.0,1.0,1.0,1.0,1.0,80.0,,1760267825.473
0.8297920369315852,0.6706070917008332,0.4330422823882423,0.5087217041640566,0.629321521518134,-0.1607150247928708,0.1129587808517719,0.3050453332553635,0.3491929235154347,0.2314195912140241,0.1028772199593834,0.9147680875815898,0.6467951199234495,0.2629619959666133,0.0010704754485042,0.6658852766723746,0.1361954785975688,-0.0355378191988055,-0.4725807911375441,0.6060765078563732,788.1318681318681,798.6080586080586,790.5494505494506,787.3260073260074,678.1318681318681,913.846153846154,-0.018555,-0.02002,1.001648,2.631836,0.5159,3.177643,1.0,1.0,1.0,1.0,1.0,80.0,,1760267825.473
0.8297920369315852,0.6706070917008332,0.4330422823882423,0.5087217041640566,0.629321521518134,-0.1607150247928708,0.1129587808517719,0.3050453332553635,0.3491929235154347,0.2314195912140241,0.1028772199593834,0.9147680875815898,0.6467951199234495,0.2629619959666133,0.0010704754485042,0.6658852766723746,0.1361954785975688,-0.0355378191988055,-0.4725807911375441,0.6060765078563732,790.1465201465202,797.8021978021978,794.1758241758242,793.3699633699634,690.6227106227107,528.6446886446887,-0.018555,-0.02002,1.001648,2.631836,0.5159,3.177643,1.0,1.0,1.0,1.0,1.0,80.0,,1760267825.474
0.8297920369315852,0.6706070917008332,0.4330422823882423,0.5087217041640566,0.629321521518134,-0.1607150247928708,0.1129587808517719,0.3050453332553635,0.3491929235154347,0.2314195912140241,0.1028772199593834,0.9147680875815898,0.6467951199234495,0.2629619959666133,0.0010704754485042,0.6658852766723746,0.1361954785975688,-0.0355378191988055,-0.4725807911375441,0.6060765078563732,790.1465201465202,803.040293040293,800.2197802197802,806.2637362637363,753.0769230769231,609.2307692307693,-0.018555,-0.02002,1.001648,2.631836,0.5159,3.177643,1.0,1.0,1.0,1.0,1.0,80.0,,1760267825.474
0.8297920369315852,0.6706070917008332,0.4330422823882423,0.5087217041640566,0.629321521518134,-0.1607150247928708,0.1129587808517719,0.3050453332553635,0.3491929235154347,0.2314195912140241,0.1028772199593834,0.9147680875815898,0.6467951199234495,0.2629619959666133,0.0010704754485042,0.6658852766723746,0.1361954785975688,-0.0355378191988055,-0.4725807911375441,0.6060765078563732,789.7435897435897,805.054945054945,799.8168498168499,791.3553113553114,694.6520146520147,611.6483516483516,-0.018555,-0.02002,1.001648,2.631836,0.5159,3.177643,1.0,1.0,1.0,1.0,1.0,80.0,,1760267825.474
0.8297920369315852,0.6706070917008332,0.4330422823882423,0.5087217041640566,0.629321521518134,-0.1607150247928708,0.1129587808517719,0.3050453332553635,0.3491929235154347,0.2314195912140241,0.1028772199593834,0.9147680875815898,0.6467951199234495,0.2629619959666133,0.0010704754485042,0.6658852766723746,0.1361954785975688,-0.0355378191988055,-0.4725807911375441,0.6060765078563732,780.4761904761905,805.4578754578755,795.7875457875458,782.893772893773,683.7728937728938,519.3772893772893,-0.018555,-0.02002,1.001648,2.631836,0.5159,3.177643,1.0,1.0,1.0,1.0,1.0,80.0,,1760267825.475
0.8297920369315852,0.6706070917008332,0.4330422823882423,0.5087217041640566,0.629321521518134,-0.1607150247928708,0.1129587808517719,0.3050453332553635,0.3491929235154347,0.2314195912140241,0.1028772199593834,0.9147680875815898,0.6467951199234495,0.2629619959666133,0.0010704754485042,0.6658852766723746,0.1361954785975688,-0.0355378191988055,-0.4725807911375441,0.6060765078563732,784.1025641025641,802.6373626373627,795.3846153846154,785.7142857142858,825.6043956043957,643.8827838827839,-0.018555,-0.02002,1.001648,2.631836,0.5159,3.177643,1.0,1.0,1.0,1.0,1.0,80.0,,1760267825.475
0.8297920369315852,0.6706070917008332,0.4330422823882423,0.5087217041640566,0.629321521518134,-0.1607150247928708,0.1129587808517719,0.3050453332553635,0.3491929235154347,0.2314195912140241,0.1028772199593834,0.9147680875815898,0.6467951199234495,0.2629619959666133,0.0010704754485042,0.6658852766723746,0.1361954785975688,-0.0355378191988055,-0.4725807911375441,0.6060765078563732,801.8315018315019,805.8608058608058,799.4139194139194,783.6996336996338,910.6227106227108,807.0695970695971,-0.018555,-0.024048,0.991089,2.871094,1.547699,3.028107,1.0,1.0,1.0,1.0,1.0,80.0,,1760267825.518
0.8297920369315852,0.6450376183965925,0.4188977727649544,0.5087217041640566,0.629321521518134,-0.1638119391231875,0.0751736949898184,0.3050453332553635,0.3491929235154347,0.2217800792472629,0.1043359294330503,0.9147680875815898,0.6467951199234495,0.2039663595306819,-0.0241852959423502,0.6658852766723746,0.1361954785975688,-0.1209705887808538,-0.5547936330243947,0.6060765078563732,791.3553113553114,804.6520146520147,798.2051282051282,778.8644688644689,795.7875457875458,731.3186813186813,-0.018555,-0.024048,0.991089,2.871094,1.547699,3.028107,1.0,1.0,1.0,1.0,1.0,80.0,,1760267825.518
0.8297920369315852,0.6450376183965925,0.4188977727649544,0.5087217041640566,0.629321521518134,-0.1638119391231875,0.0751736949898184,0.3050453332553635,0.3491929235154347,0.2217800792472629,0.1043359294330503,0.9147680875815898,0.6467951199234495,0.2039663595306819,-0.0241852959423502,0.6658852766723746,0.1361954785975688,-0.1209705887808538,-0.5547936330243947,0.6060765078563732,791.7582417582418,800.2197802197802,797.3992673992674,780.0732600732601,691.8315018315019,512.9304029304029,-0.018555,-0.024048,0.991089,2.871094,1.547699,3.028107,1.0,1.0,1.0,1.0,1.0,80.0,,1760267825.519
0.8297920369315852,0.6450376183965925,0.4188977727649544,0.5087217041640566,0.629321521518134,-0.1638119391231875,0.0751736949898184,0.3050453332553635,0.3491929235154347,0.2217800792472629,0.1043359294330503,0.9147680875815898,0.6467951199234495,0.2039663595306819,-0.0241852959423502,0.6658852766723746,0.1361954785975688,-0.1209705887808538,-0.5547936330243947,0.6060765078563732,814.7252747252747,804.2490842490843,803.040293040293,782.4908424908425,723.6630036630037,644.2857142857143,-0.018555,-0.024048,0.991089,2.871094,1.547699,3.028107,1.0,1.0,1.0,1.0,1.0,80.0,,1760267825.519
0.8297920369315852,0.6450376183965925,0.4188977727649544,0.5087217041640566,0.629321521518134,-0.1638119391231875,0.0751736949898184,0.3050453332553635,0.3491929235154347,0.2217800792472629,0.1043359294330503,0.9147680875815898,0.6467951199234495,0.2039663595306819,-0.0241852959423502,0.6658852766723746,0.1361954785975688,-0.1209705887808538,-0.5547936330243947,0.6060765078563732,812.7106227106227,811.5018315018315,805.8608058608058,801.025641025641,750.6593406593407,940.03663003663,-0.018555,-0.024048,0.991089,2.871094,1.547699,3.028107,1.0,1.0,1.0,1.0,1.0,80.0,,1760267825.52
0.8297920369315852,0.6450376183965925,0.4188977727649544,0.5087217041640566,0.629321521518134,-0.1638119391231875,0.0751736949898184,0.3050453332553635,0.3491929235154347,0.2217800792472629,0.1043359294330503,0.9147680875815898,0.6467951199234495,0.2039663595306819,-0.0241852959423502,0.6658852766723746,0.1361954785975688,-0.1209705887808538,-0.5547936330243947,0.6060765078563732,801.4285714285714,802.6373626373627,798.2051282051282,799.0109890109891,726.886446886447,990.8058608058608,-0.018555,-0.024048,0.991089,2.871094,1.547699,3.028107,1.0,1.0,1.0,1.0,1.0,80.0,,1760267825.52
0.8297920369315852,0.6450376183965925,0.4188977727649544,0.5087217041640566,0.629321521518134,-0.1638119391231875,0.0751736949898184,0.3050453332553635,0.3491929235154347,0.2217800792472629,0.1043359294330503,0.9147680875815898,0.6467951199234495,0.2039663595306819,-0.0241852959423502,0.6658852766723746,0.1361954785975688,-0.1209705887808538,-0.5547936330243947,0.6060765078563732,811.9047619047619,801.025641025641,801.025641025641,787.7289377289378,724.8717948717949,1064.139194139194,-0.018555,-0.024048,0.991089,2.871094,1.547699,3.028107,1.0,1.0,1.0,1.0,1.0,80.0,,1760267825.52
0.8297920369315852,0.6450376183965925,0.4188977727649544,0.5087217041640566,0.629321521518134,-0.1638119391231875,0.0751736949898184,0.3050453332553635,0.3491929235154347,0.2217800792472629,0.1043359294330503,0.9147680875815898,0.6467951199234495,0.2039663595306819,-0.0241852959423502,0.6658852766723746,0.1361954785975688,-0.1209705887808538,-0.5547936330243947,0.6060765078563732,792.5641025641025,806.6666666666667,804.6520146520147,796.996336996337,769.5970695970697,1079.450549450549,-0.018555,-0.024048,0.991089,2.871094,1.547699,3.028107,1.0,1.0,1.0,1.0,1.0,80.0,,1760267825.521
0.8297920369315852,0.6450376183965925,0.4188977727649544,0.5087217041640566,0.629321521518134,-0.1638119391231875,0.0751736949898184,0.3050453332553635,0.3491929235154347,0.2217800792472629,0.1043359294330503,0.9147680875815898,0.6467951199234495,0.2039663595306819,-0.0241852959423502,0.6658852766723746,0.1361954785975688,-0.1209705887808538,-0.5547936330243947,0.6060765078563732,790.5494505494506,812.7106227106227,798.6080586080586,810.6959706959707,779.6703296703297,904.5787545787546,-0.018555,-0.024048,0.991089,2.871094,1.547699,3.028107,1.0,1.0,1.0,1.0,1.0,80.0,,1760267825.521
0.8297920369315852,0.6450376183965925,0.4188977727649544,0.5087217041640566,0.629321521518134,-0.1638119391231875,0.0751736949898184,0.3050453332553635,0.3491929235154347,0.2217800792472629,0.1043359294330503,0.9147680875815898,0.6467951199234495,0.2039663595306819,-0.0241852959423502,0.6658852766723746,0.1361954785975688,-0.1209705887808538,-0.5547936330243947,0.6060765078563732,808.6813186813187,807.0695970695971,800.2197802197802,817.5457875457876,770.4029304029305,689.8168498168499,-0.018555,-0.024048,0.991089,2.871094,1.547699,3.028107,1.0,1.0,1.0,1.0,1.0,80.0,,1760267825.521
0.8297920369315852,0.6450376183965925,0.4188977727649544,0.5087217041640566,0.629321521518134,-0.1638119391231875,0.0751736949898184,0.3050453332553635,0.3491929235154347,0.2217800792472629,0.1043359294330503,0.9147680875815898,0.6467951199234495,0.2039663595306819,-0.0241852959423502,0.6658852766723746,0.1361954785975688,-0.1209705887808538,-0.5547936330243947,0.6060765078563732,779.6703296703297,796.996336996337,801.8315018315019,802.2344322344322,834.0659340659341,678.1318681318681,-0.018555,-0.024048,0.991089,2.871094,1.547699,3.028107,1.0,1.0,1.0,1.0,1.0,80.0,,1760267825.521
0.8297920369315852,0.6450376183965925,0.4188977727649544,0.5087217041640566,0.629321521518134,-0.1638119391231875,0.0751736949898184,0.3050453332553635,0.3491929235154347,0.2217800792472629,0.1043359294330503,0.9147680875815898,0.6467951199234495,0.2039663595306819,-0.0241852959423502,0.6658852766723746,0.1361954785975688,-0.1209705887808538,-0.5547936330243947,0.6060765078563732,773.2234432234433,794.1758241758242,802.6373626373627,790.1465201465202,922.7106227106228,731.7216117216118,-0.018555,-0.024048,0.991089,2.871094,1.547699,3.028107,1.0,1.0,1.0,1.0,1.0,80.0,,1760267825.522
0.8297920369315852,0.6450376183965925,0.4188977727649544,0.5087217041640566,0.629321521518134,-0.1638119391231875,0.0751736949898184,0.3050453332553635,0.3491929235154347,0.2217800792472629,0.1043359294330503,0.9147680875815898,0.6467951199234495,0.2039663595306819,-0.0241852959423502,0.6658852766723746,0.1361954785975688,-0.1209705887808538,-0.5547936330243947,0.6060765078563732,781.6849816849817,796.5934065934066,796.5934065934066,793.7728937728938,858.6446886446887,721.2454212454213,-0.026489,-0.037292,0.995239,2.736511,2.220612,2.743988,1.0,1.0,1.0,1.0,1.0,80.0,,1760267825.565
0.8297920369315852,0.6450376183965925,0.4188977727649544,0.5087217041640566,0.629321521518134,-0.1638119391231875,0.0751736949898184,0.3050453332553635,0.3491929235154347,0.2217800792472629,0.1043359294330503,0.9147680875815898,0.6467951199234495,0.2039663595306819,-0.0241852959423502,0.6658852766723746,0.1361954785975688,-0.1209705887808538,-0.5547936330243947,0.6060765078563732,797.3992673992674,802.6373626373627,793.7728937728938,788.1318681318681,795.3846153846154,707.5457875457876,-0.026489,-0.037292,0.995239,2.736511,2.220612,2.743988,1.0,1.0,1.0,1.0,1.0,80.0,,1760267825.566
0.8297920369315852,0.6450376183965925,0.4188977727649544,0.5087217041640566,0.629321521518134,-0.1638119391231875,0.0751736949898184,0.3050453332553635,0.3491929235154347,0.2217800792472629,0.1043359294330503,0.9147680875815898,0.6467951199234495,0.2039663595306819,-0.0241852959423502,0.6658852766723746,0.1361954785975688,-0.1209705887808538,-0.5547936330243947,0.6060765078563732,783.6996336996338,799.8168498168499,799.8168498168499,787.3260073260074,832.4542124542124,660.8058608058608,-0.026489,-0.037292,0.995239,2.736511,2.220612,2.743988,1.0,1.0,1.0,1.0,1.0,80.0,,1760267825.566
0.8297920369315852,0.6450376183965925,0.4188977727649544,0.5087217041640566,0.629321521518134,-0.1638119391231875,0.0751736949898184,0.3050453332553635,0.3491929235154347,0.2217800792472629,0.1043359294330503,0.9147680875815898,0.6467951199234495,0.2039663595306819,-0.0241852959423502,0.6658852766723746,0.1361954785975688,-0.1209705887808538,-0.5547936330243947,0.6060765078563732,763.956043956044,794.981684981685,801.8315018315019,797.8021978021978,815.934065934066,549.5970695970697,-0.026489,-0.037292,0.995239,2.736511,2.220612,2.743988,1.0,1.0,1.0,1.0,1.0,80.0,,1760267825.566
0.8297920369315852,0.6450376183965925,0.4188977727649544,0.5087217041640566,0.629321521518134,-0.1638119391231875,0.0751736949898184,0.3050453332553635,0.3491929235154347,0.2217800792472629,0.1043359294330503,0.9147680875815898,0.6467951199234495,0.2039663595306819,-0.0241852959423502,0.6658852766723746,0.1361954785975688,-0.1209705887808538,-0.5547936330243947,0.6060765078563732,764.3589743589744,788.5347985347986,800.2197802197802,791.7582417582418,835.2747252747253,782.4908424908425,-0.026489,-0.037292,0.995239,2.736511,2.220612,2.743988,1.0,1.0,1.0,1.0,1.0,80.0,,1760267825.567
0.8297920369315852,0.6450376183965925,0.4188977727649544,0.5087217041640566,0.629321521518134,-0.1638119391231875,0.0751736949898184,0.3050453332553635,0.3491929235154347,0.2217800792472629,0.1043359294330503,0.9147680875815898,0.6467951199234495,0.2039663595306819,-0.0241852959423502,0.6658852766723746,0.1361954785975688,-0.1209705887808538,-0.5547936330243947,0.6060765078563732,747.8388278388279,790.1465201465202,801.025641025641,774.0293040293041,796.5934065934066,1048.021978021978,-0.026489,-0.037292,0.995239,2.736511,2.220612,2.743988,1.0,1.0,1.0,1.0,1.0,80.0,,1760267825.567
0.8297920369315852,0.6450376183965925,0.4188977727649544,0.5087217041640566,0.629321521518134,-0.1638119391231875,0.0751736949898184,0.3050453332553635,0.3491929235154347,0.2217800792472629,0.1043359294330503,0.9147680875815898,0.6467951199234495,0.2039663595306819,-0.0241852959423502,0.6658852766723746,0.1361954785975688,-0.1209705887808538,-0.5547936330243947,0.6060765078563732,759.5238095238095,794.5787545787546,799.8168498168499,770.0,713.992673992674,1030.29304029304,-0.026489,-0.037292,0.995239,2.736511,2.220612,2.743988,1.0,1.0,1.0,1.0,1.0,80.0,,1760267825.568
0.8297920369315852,0.6450376183965925,0.4188977727649544,0.5087217041640566,0.629321521518134,-0.1638119391231875,0.0751736949898184,0.3050453332553635,0.3491929235154347,0.2217800792472629,0.1043359294330503,0.9147680875815898,0.6467951199234495,0.2039663595306819,-0.0241852959423502,0.6658852766723746,0.1361954785975688,-0.1209705887808538,-0.5547936330243947,0.6060765078563732,782.0879120879121,789.7435897435897,798.2051282051282,784.5054945054945,782.0879120879121,794.981684981685,-0.026489,-0.037292,0.995239,2.736511,2.220612,2.743988,1.0,1.0,1.0,1.0,1.0,80.0,,1760267825.568
0.8297920369315852,0.6450376183965925,0.4188977727649544,0.5087217041640566,0.629321521518134,-0.1638119391231875,0.0751736949898184,0.3050453332553635,0.3491929235154347,0.2217800792472629,0.1043359294330503,0.9147680875815898,0.6467951199234495,0.2039663595306819,-0.0241852959423502,0.6658852766723746,0.1361954785975688,-0.1209705887808538,-0.5547936330243947,0.6060765078563732,756.3003663003664,791.3553113553114,796.5934065934066,777.6556776556777,852.1978021978023,896.5201465201466,-0.026489,-0.037292,0.995239,2.736511,2.220612,2.743988,1.0,1.0,1.0,1.0,1.0,80.0,,1760267825.568
0.8297920369315852,0.6450376183965925,0.4188977727649544,0.5087217041640566,0.629321521518134,-0.1638119391231875,0.0751736949898184,0.3050453332553635,0.3491929235154347,0.2217800792472629,0.1043359294330503,0.9147680875815898,0.6467951199234495,0.2039663595306819,-0.0241852959423502,0.6658852766723746,0.1361954785975688,-0.1209705887808538,-0.5547936330243947,0.6060765078563732,765.5677655677656,791.3553113553114,794.5787545787546,773.2234432234433,826.8131868131868,951.7216117216118,-0.026489,-0.037292,0.995239,2.736511,2.220612,2.743988,1.0,1.0,1.0,1.0,1.0,80.0,,1760267825.569
0.8297920369315852,0.6450376183965925,0.4188977727649544,0.5087217041640566,0.629321521518134,-0.1638119391231875,0.0751736949898184,0.3050453332553635,0.3491929235154347,0.2217800792472629,0.1043359294330503,0.9147680875815898,0.6467951199234495,0.2039663595306819,-0.0241852959423502,0.6658852766723746,0.1361954785975688,-0.1209705887808538,-0.5547936330243947,0.6060765078563732,779.2673992673992,788.1318681318681,792.5641025641025,765.9706959706959,807.0695970695971,607.2161172161173,-0.026489,-0.037292,0.995239,2.736511,2.220612,2.743988,1.0,1.0,1.0,1.0,1.0,80.0,,1760267825.569
0.8297920369315852,0.6450376183965925,0.4188977727649544,0.5087217041640566,0.629321521518134,-0.1638119391231875,0.0751736949898184,0.3050453332553635,0.3491929235154347,0.2217800792472629,0.1043359294330503,0.9147680875815898,0.6467951199234495,0.2039663595306819,-0.0241852959423502,0.6658852766723746,0.1361954785975688,-0.1209705887808538,-0.5547936330243947,0.6060765078563732,776.4468864468864,790.1465201465202,797.3992673992674,771.2087912087912,882.014652014652,627.7655677655678,-0.026489,-0.037292,0.995239,2.736511,2.220612,2.743988,1.0,1.0,1.0,1.0,1.0,80.0,,1760267825.569
0.8297920369315852,0.6450376183965925,0.4188977727649544,0.5087217041640566,0.629321521518134,-0.1638119391231875,0.0751736949898184,0.3050453332553635,0.3491929235154347,0.2217800792472629,0.1043359294330503,0.9147680875815898,0.6467951199234495,0.2039663595306819,-0.0241852959423502,0.6658852766723746,0.1361954785975688,-0.1209705887808538,-0.5547936330243947,0.6060765078563732,782.4908424908425,794.981684981685,798.2051282051282,803.4432234432235,945.2747252747253,840.9157509157509,-0.024597,-0.020996,0.986328,4.568329,0.433655,3.252411,1.0,1.0,1.0,1.0,1.0,80.0,,1760267825.613
0.8297920369315852,0.6450376183965925,0.4188977727649544,0.5087217041640566,0.629321521518134,-0.1638119391231875,0.0751736949898184,0.3050453332553635,0.3491929235154347,0.2217800792472629,0.1043359294330503,0.9147680875815898,0.6467951199234495,0.2039663595306819,-0.0241852959423502,0.6658852766723746,0.1361954785975688,-0.1209705887808538,-0.5547936330243947,0.6060765078563732,770.4029304029305,796.5934065934066,796.1904761904763,786.5201465201466,942.051282051282,861.8681318681319,-0.024597,-0.020996,0.986328,4.568329,0.433655,3.252411,1.0,1.0,1.0,1.0,1.0,80.0,,1760267825.613
0.8297920369315852,0.6450376183965925,0.4188977727649544,0.5087217041640566,0.629321521518134,-0.1638119391231875,0.0751736949898184,0.3050453332553635,0.3491929235154347,0.2217800792472629,0.1043359294330503,0.9147680875815898,0.6467951199234495,0.2039663595306819,-0.0241852959423502,0.6658852766723746,0.1361954785975688,-0.1209705887808538,-0.5547936330243947,0.6060765078563732,764.7619047619048,787.3260073260074,799.8168498168499,771.6117216117216,960.989010989011,847.3626373626374,-0.024597,-0.020996,0.986328,4.568329,0.433655,3.252411,1.0,1.0,1.0,1.0,1.0,80.0,,1760267825.614
0.5307040862619816,0.6012710988168442,0.3853382385247753,0.5087217041640566,0.195556702894271,-0.1780967793533447,0.0163037571725388,0.3050453332553635,0.8826320801056974,0.2090932341581158,0.1057319116463829,0.9147680875815898,0.669562438206394,0.1539343341520729,-0.0428933379358148,0.6658852766723746,0.4794265918758537,-0.1584834060076897,-0.5753498238791567,0.6060765078563732,786.1172161172161,790.952380952381,798.6080586080586,786.1172161172161,896.1172161172161,985.970695970696,-0.024597,-0.020996,0.986328,4.568329,0.433655,3.252411,1.0,1.0,1.0,1.0,1.0,80.0,,1760267825.614
0.5307040862619816,0.6012710988168442,0.3853382385247753,0.5087217041640566,0.195556702894271,-0.1780967793533447,0.0163037571725388,0.3050453332553635,0.8826320801056974,0.2090932341581158,0.1057319116463829,0.9147680875815898,0.669562438206394,0.1539343341520729,-0.0428933379358148,0.6658852766723746,0.4794265918758537,-0.1584834060076897,-0.5753498238791567,0.6060765078563732,795.7875457875458,794.981684981685,796.996336996337,784.9084249084249,807.0695970695971,1062.930402930403,-0.024597,-0.020996,0.986328,4.568329,0.433655,3.252411,1.0,1.0,1.0,1.0,1.0,80.0,,1760267825.615
0.5307040862619816,0.6012710988168442,0.3853382385247753,0.5087217041640566,0.195556702894271,-0.1780967793533447,0.0163037571725388,0.3050453332553635,0.8826320801056974,0.2090932341581158,0.1057319116463829,0.9147680875815898,0.669562438206394,0.1539343341520729,-0.0428933379358148,0.6658852766723746,0.4794265918758537,-0.1584834060076897,-0.5753498238791567,0.6060765078563732,774.4322344322345,791.3553113553114,800.6227106227107,776.4468864468864,791.3553113553114,1029.89010989011,-0.024597,-0.020996,0.986328,4.568329,0.433655,3.252411,1.0,1.0,1.0,1.0,1.0,80.0,,1760267825.615
0.5307040862619816,0.6012710988168442,0.3853382385247753,0.5087217041640566,0.195556702894271,-0.1780967793533447,0.0163037571725388,0.3050453332553635,0.8826320801056974,0.2090932341581158,0.1057319116463829,0.9147680875815898,0.669562438206394,0.1539343341520729,-0.0428933379358148,0.6658852766723746,0.4794265918758537,-0.1584834060076897,-0.5753498238791567,0.6060765078563732,792.5641025641025,797.8021978021978,807.8754578754579,791.3553113553114,812.3076923076924,1124.175824175824,-0.024597,-0.020996,0.986328,4.568329,0.433655,3.252411,1.0,1.0,1.0,1.0,1.0,80.0,,1760267825.615
0.5307040862619816,0.6012710988168442,0.3853382385247753,0.5087217041640566,0.195556702894271,-0.1780967793533447,0.0163037571725388,0.3050453332553635,0.8826320801056974,0.2090932341581158,0.1057319116463829,0.9147680875815898,0.669562438206394,0.1539343341520729,-0.0428933379358148,0.6658852766723746,0.4794265918758537,-0.1584834060076897,-0.5753498238791567,0.6060765078563732,804.2490842490843,791.3553113553114,803.8461538461539,804.2490842490843,810.6959706959707,941.2454212454212,-0.024597,-0.020996,0.986328,4.568329,0.433655,3.252411,1.0,1.0,1.0,1.0,1.0,80.0,,1760267825.616
0.5307040862619816,0.6012710988168442,0.3853382385247753,0.5087217041640566,0.195556702894271,-0.1780967793533447,0.0163037571725388,0.3050453332553635,0.8826320801056974,0.2090932341581158,0.1057319116463829,0.9147680875815898,0.669562438206394,0.1539343341520729,-0.0428933379358148,0.6658852766723746,0.4794265918758537,-0.1584834060076897,-0.5753498238791567,0.6060765078563732,796.1904761904763,785.7142857142858,792.967032967033,784.1025641025641,827.2161172161173,728.901098901099,-0.024597,-0.020996,0.986328,4.568329,0.433655,3.252411,1.0,1.0,1.0,1.0,1.0,80.0,,1760267825.616
0.5307040862619816,0.6012710988168442,0.3853382385247753,0.5087217041640566,0.195556702894271,-0.1780967793533447,0.0163037571725388,0.3050453332553635,0.8826320801056974,0.2090932341581158,0.1057319116463829,0.9147680875815898,0.669562438206394,0.1539343341520729,-0.0428933379358148,0.6658852766723746,0.4794265918758537,-0.1584834060076897,-0.5753498238791567,0.6060765078563732,800.2197802197802,799.0109890109891,797.3992673992674,781.6849816849817,881.2087912087912,807.4725274725275,-0.024597,-0.020996,0.986328,4.568329,0.433655,3.252411,1.0,1.0,1.0,1.0,1.0,80.0,,1760267825.616
0.5307040862619816,0.6012710988168442,0.3853382385247753,0.5087217041640566,0.195556702894271,-0.1780967793533447,0.0163037571725388,0.3050453332553635,0.8826320801056974,0.2090932341581158,0.1057319116463829,0.9147680875815898,0.669562438206394,0.1539343341520729,-0.0428933379358148,0.6658852766723746,0.4794265918758537,-0.1584834060076897,-0.5753498238791567,0.6060765078563732,802.6373626373627,801.025641025641,799.4139194139194,784.9084249084249,835.2747252747253,690.2197802197802,-0.024597,-0.020996,0.986328,4.568329,0.433655,3.252411,1.0,1.0,1.0,1.0,1.0,80.0,,1760267825.617
0.5307040862619816,0.6012710988168442,0.3853382385247753,0.5087217041640566,0.195556702894271,-0.1780967793533447,0.0163037571725388,0.3050453332553635,0.8826320801056974,0.2090932341581158,0.1057319116463829,0.9147680875815898,0.669562438206394,0.1539343341520729,-0.0428933379358148,0.6658852766723746,0.4794265918758537,-0.1584834060076897,-0.5753498238791567,0.6060765078563732,792.967032967033,797.8021978021978,800.2197802197802,787.7289377289378,700.2930402930403,595.934065934066,-0.024597,-0.020996,0.986328,4.568329,0.433655,3.252411,1.0,1.0,1.0,1.0,1.0,80.0,,1760267825.617
0.5307040862619816,0.6012710988168442,0.3853382385247753,0.5087217041640566,0.195556702894271,-0.1780967793533447,0.0163037571725388,0.3050453332553635,0.8826320801056974,0.2090932341581158,0.1057319116463829,0.9147680875815898,0.669562438206394,0.1539343341520729,-0.0428933379358148,0.6658852766723746,0.4794265918758537,-0.1584834060076897,-0.5753498238791567,0.6060765078563732,773.2234432234433,796.5934065934066,803.4432234432235,805.4578754578755,689.0109890109891,662.4175824175825,-0.01709,-0.021667,0.995605,3.820648,0.792542,2.392578,1.0,1.0,1.0,1.0,1.0,80.0,,1760267825.66
0.5307040862619816,0.6012710988168442,0.3853382385247753,0.5087217041640566,0.195556702894271,-0.1780967793533447,0.0163037571725388,0.3050453332553635,0.8826320801056974,0.2090932341581158,0.1057319116463829,0.9147680875815898,0.669562438206394,0.1539343341520729,-0.0428933379358148,0.6658852766723746,0.4794265918758537,-0.1584834060076897,-0.5753498238791567,0.6060765078563732,773.6263736263736,795.7875457875458,803.8461538461539,804.6520146520147,778.4615384615385,703.1135531135532,-0.01709,-0.021667,0.995605,3.820648,0.792542,2.392578,1.0,1.0,1.0,1.0,1.0,80.0,,1760267825.661
0.5307040862619816,0.6012710988168442,0.3853382385247753,0.5087217041640566,0.195556702894271,-0.1780967793533447,0.0163037571725388,0.3050453332553635,0.8826320801056974,0.2090932341581158,0.1057319116463829,0.9147680875815898,0.669562438206394,0.1539343341520729,-0.0428933379358148,0.6658852766723746,0.4794265918758537,-0.1584834060076897,-0.5753498238791567,0.6060765078563732,761.941391941392,798.6080586080586,799.4139194139194,791.7582417582418,799.8168498168499,685.7875457875458,-0.01709,-0.021667,0.995605,3.820648,0.792542,2.392578,1.0,1.0,1.0,1.0,1.0,80.0,,1760267825.661
0.5307040862619816,0.6012710988168442,0.3853382385247753,0.5087217041640566,0.195556702894271,-0.1780967793533447,0.0163037571725388,0.3050453332553635,0.8826320801056974,0.2090932341581158,0.1057319116463829,0.9147680875815898,0.669562438206394,0.1539343341520729,-0.0428933379358148,0.6658852766723746,0.4794265918758537,-0.1584834060076897,-0.5753498238791567,0.6060765078563732,765.5677655677656,799.4139194139194,796.996336996337,796.5934065934066,759.1208791208792,618.901098901099,-0.01709,-0.021667,0.995605,3.820648,0.792542,2.392578,1.0,1.0,1.0,1.0,1.0,80.0,,1760267825.661
0.5307040862619816,0.6012710988168442,0.3853382385247753,0.5087217041640566,0.195556702894271,-0.1780967793533447,0.0163037571725388,0.3050453332553635,0.8826320801056974,0.2090932341581158,0.1057319116463829,0.9147680875815898,0.669562438206394,0.1539343341520729,-0.0428933379358148,0.6658852766723746,0.4794265918758537,-0.1584834060076897,-0.5753498238791567,0.6060765078563732,790.5494505494506,796.5934065934066,807.0695970695971,799.8168498168499,775.6410256410256,719.6336996336996,-0.01709,-0.021667,0.995605,3.820648,0.792542,2.392578,1.0,1.0,1.0,1.0,1.0,80.0,,1760267825.662
0.5307040862619816,0.6012710988168442,0.3853382385247753,0.5087217041640566,0.195556702894271,-0.1780967793533447,0.0163037571725388,0.3050453332553635,0.8826320801056974,0.2090932341581158,0.1057319116463829,0.9147680875815898,0.669562438206394,0.1539343341520729,-0.0428933379358148,0.6658852766723746,0.4794265918758537,-0.1584834060076897,-0.5753498238791567,0.6060765078563732,788.9377289377289,799.0109890109891,805.8608058608058,793.7728937728938,778.0586080586081,952.5274725274726,-0.01709,-0.021667,0.995605,3.820648,0.792542,2.392578,1.0,1.0,1.0,1.0,1.0,80.0,,1760267825.662
0.5307040862619816,0.6012710988168442,0.3853382385247753,0.5087217041640566,0.195556702894271,-0.1780967793533447,0.0163037571725388,0.3050453332553635,0.8826320801056974,0.2090932341581158,0.1057319116463829,0.9147680875815898,0.669562438206394,0.1539343341520729,-0.0428933379358148,0.6658852766723746,0.4794265918758537,-0.1584834060076897,-0.5753498238791567,0.6060765078563732,782.893772893773,798.2051282051282,799.8168498168499,800.2197802197802,749.4505494505495,1108.461538461539,-0.01709,-0.021667,0.995605,3.820648,0.792542,2.392578,1.0,1.0,1.0,1.0,1.0,80.0,,1760267825.662
0.5307040862619816,0.6012710988168442,0.3853382385247753,0.5087217041640566,0.195556702894271,-0.1780967793533447,0.0163037571725388,0.3050453332553635,0.8826320801056974,0.2090932341581158,0.1057319116463829,0.9147680875815898,0.669562438206394,0.1539343341520729,-0.0428933379358148,0.6658852766723746,0.4794265918758537,-0.1584834060076897,-0.5753498238791567,0.6060765078563732,788.5347985347986,788.5347985347986,799.4139194139194,792.967032967033,834.8717948717949,996.043956043956,-0.01709,-0.021667,0.995605,3.820648,0.792542,2.392578,1.0,1.0,1.0,1.0,1.0,80.0,,1760267825.662
0.5307040862619816,0.6012710988168442,0.3853382385247753,0.5087217041640566,0.195556702894271,-0.1780967793533447,0.0163037571725388,0.3050453332553635,0.8826320801056974,0.2090932341581158,0.1057319116463829,0.9147680875815898,0.669562438206394,0.1539343341520729,-0.0428933379358148,0.6658852766723746,0.4794265918758537,-0.1584834060076897,-0.5753498238791567,0.6060765078563732,792.1611721611722,788.9377289377289,796.996336996337,794.1758241758242,809.8901098901099,737.7655677655678,-0.01709,-0.021667,0.995605,3.820648,0.792542,2.392578,1.0,1.0,1.0,1.0,1.0,80.0,,1760267825.663
0.5307040862619816,0.6012710988168442,0.3853382385247753,0.5087217041640566,0.195556702894271,-0.1780967793533447,0.0163037571725388,0.3050453332553635,0.8826320801056974,0.2090932341581158,0.1057319116463829,0.9147680875815898,0.669562438206394,0.1539343341520729,-0.0428933379358148,0.6658852766723746,0.4794265918758537,-0.1584834060076897,-0.5753498238791567,0.6060765078563732,796.996336996337,795.7875457875458,799.8168498168499,800.2197802197802,788.9377289377289,743.8095238095239,-0.01709,-0.021667,0.995605,3.820648,0.792542,2.392578,1.0,1.0,1.0,1.0,1.0,80.0,,1760267825.663
0.5307040862619816,0.6012710988168442,0.3853382385247753,0.5087217041640566,0.195556702894271,-0.1780967793533447,0.0163037571725388,0.3050453332553635,0.8826320801056974,0.2090932341581158,0.1057319116463829,0.9147680875815898,0.669562438206394,0.1539343341520729,-0.0428933379358148,0.6658852766723746,0.4794265918758537,-0.1584834060076897,-0.5753498238791567,0.6060765078563732,792.967032967033,796.1904761904763,800.2197802197802,790.5494505494506,897.7289377289378,747.4358974358975,-0.01709,-0.021667,0.995605,3.820648,0.792542,2.392578,1.0,1.0,1.0,1.0,1.0,80.0,,1760267825.663
0.5307040862619816,0.6012710988168442,0.3853382385247753,0.5087217041640566,0.195556702894271,-0.1780967793533447,0.0163037571725388,0.3050453332553635,0.8826320801056974,0.2090932341581158,0.1057319116463829,0.9147680875815898,0.669562438206394,0.1539343341520729,-0.0428933379358148,0.6658852766723746,0.4794265918758537,-0.1584834060076897,-0.5753498238791567,0.6060765078563732,788.5347985347986,799.4139194139194,797.8021978021978,776.8498168498169,875.9706959706959,638.6446886446887,-0.01709,-0.021667,0.995605,3.820648,0.792542,2.392578,1.0,1.0,1.0,1.0,1.0,80.0,,1760267825.664
0.5307040862619816,0.6012710988168442,0.3853382385247753,0.5087217041640566,0.195556702894271,-0.1780967793533447,0.0163037571725388,0.3050453332553635,0.8826320801056974,0.2090932341581158,0.1057319116463829,0.9147680875815898,0.669562438206394,0.1539343341520729,-0.0428933379358148,0.6658852766723746,0.4794265918758537,-0.1584834060076897,-0.5753498238791567,0.6060765078563732,793.7728937728938,803.8461538461539,794.981684981685,764.3589743589744,834.4688644688645,728.901098901099,-0.01825,-0.028137,0.992004,2.50473,1.368256,2.018738,1.0,1.0,1.0,1.0,1.0,80.0,,1760267825.707
0.5307040862619816,0.6012710988168442,0.3853382385247753,0.5087217041640566,0.195556702894271,-0.1780967793533447,0.0163037571725388,0.3050453332553635,0.8826320801056974,0.2090932341581158,0.1057319116463829,0.9147680875815898,0.669562438206394,0.1539343341520729,-0.0428933379358148,0.6658852766723746,0.4794265918758537,-0.1584834060076897,-0.5753498238791567,0.6060765078563732,777.2527472527473,803.8461538461539,795.7875457875458,770.8058608058608,815.934065934066,911.0256410256412,-0.01825,-0.028137,0.992004,2.50473,1.368256,2.018738,1.0,1.0,1.0,1.0,1.0,80.0,,1760267825.707
0.5307040862619816,0.6012710988168442,0.3853382385247753,0.5087217041640566,0.195556702894271,-0.1780967793533447,0.0163037571725388,0.3050453332553635,0.8826320801056974,0.2090932341581158,0.1057319116463829,0.9147680875815898,0.669562438206394,0.1539343341520729,-0.0428933379358148,0.6658852766723746,0.4794265918758537,-0.1584834060076897,-0.5753498238791567,0.6060765078563732,780.8791208791209,800.6227106227107,795.7875457875458,787.7289377289378,837.6923076923077,876.7765567765568,-0.01825,-0.028137,0.992004,2.50473,1.368256,2.018738,1.0,1.0,1.0,1.0,1.0,80.0,,1760267825.708
0.5307040862619816,0.6012710988168442,0.3853382385247753,0.5087217041640566,0.195556702894271,-0.1780967793533447,0.0163037571725388,0.3050453332553635,0.8826320801056974,0.2090932341581158,0.1057319116463829,0.9147680875815898,0.669562438206394,0.1539343341520729,-0.0428933379358148,0.6658852766723746,0.4794265918758537,-0.1584834060076897,-0.5753498238791567,0.6060765078563732,791.7582417582418,800.6227106227107,789.7435897435897,786.5201465201466,822.7838827838829,912.6373626373628,-0.01825,-0.028137,0.992004,2.50473,1.368256,2.018738,1.0,1.0,1.0,1.0,1.0,80.0,,1760267825.708
0.5307040862619816,0.6012710988168442,0.3853382385247753,0.5087217041640566,0.195556702894271,-0.1780967793533447,0.0163037571725388,0.3050453332553635,0.8826320801056974,0.2090932341581158,0.1057319116463829,0.9147680875815898,0.669562438206394,0.1539343341520729,-0.0428933379358148,0.6658852766723746,0.4794265918758537,-0.1584834060076897,-0.5753498238791567,0.6060765078563732,796.5934065934066,803.8461538461539,796.996336996337,796.5934065934066,761.941391941392,949.3040293040292,-0.01825,-0.028137,0.992004,2.50473,1.368256,2.018738,1.0,1.0,1.0,1.0,1.0,80.0,,1760267825.708
0.5204884348145647,0.5310331049013262,0.3270444455793904,0.5064857807087968,0.1940147108019301,-0.1997364550785528,-0.0523882197360858,0.3209061710876118,0.9177843071016152,0.2034437830013007,0.0568081370858698,0.9183657816258908,0.676362582566141,0.1175535201827996,-0.0588275189646821,0.6783780029250971,0.4589204250848395,-0.1595593349621149,-0.5500000031051201,0.5912208368592549,815.934065934066,801.4285714285714,798.2051282051282,804.6520146520147,737.7655677655678,900.1465201465202,-0.01825,-0.028137,0.992004,2.50473,1.368256,2.018738,1.0,1.0,1.0,1.0,1.0,80.0,,1760267825.709
0.5204884348145647,0.5310331049013262,0.3270444455793904,0.5064857807087968,0.1940147108019301,-0.1997364550785528,-0.0523882197360858,0.3209061710876118,0.9177843071016152,0.2034437830013007,0.0568081370858698,0.9183657816258908,0.676362582566141,0.1175535201827996,-0.0588275189646821,0.6783780029250971,0.4589204250848395,-0.1595593349621149,-0.5500000031051201,0.5912208368592549,826.4102564102565,801.8315018315019,789.7435897435897,795.7875457875458,747.8388278388279,1061.318681318681,-0.01825,-0.028137,0.992004,2.50473,1.368256,2.018738,1.0,1.0,1.0,1.0,1.0,80.0,,1760267825.709
0.5204884348145647,0.5310331049013262,0.3270444455793904,0.5064857807087968,0.1940147108019301,-0.1997364550785528,-0.0523882197360858,0.3209061710876118,0.9177843071016152,0.2034437830013007,0.0568081370858698,0.9183657816258908,0.676362582566141,0.1175535201827996,-0.0588275189646821,0.6783780029250971,0.4589204250848395,-0.1595593349621149,-0.5500000031051201,0.5912208368592549,815.1282051282052,796.5934065934066,791.3553113553114,799.8168498168499,768.3882783882784,898.5347985347986,-0.01825,-0.028137,0.992004,2.50473,1.368256,2.018738,1.0,1.0,1.0,1.0,1.0,80.0,,1760267825.71
0.5204884348145647,0.5310331049013262,0.3270444455793904,0.5064857807087968,0.1940147108019301,-0.1997364550785528,-0.0523882197360858,0.3209061710876118,0.9177843071016152,0.2034437830013007,0.0568081370858698,0.9183657816258908,0.676362582566141,0.1175535201827996,-0.0588275189646821,0.6783780029250971,0.4589204250848395,-0.1595593349621149,-0.5500000031051201,0.5912208368592549,799.8168498168499,792.5641025641025,795.7875457875458,807.4725274725275,811.9047619047619,707.5457875457876,-0.01825,-0.028137,0.992004,2.50473,1.368256,2.018738,1.0,1.0,1.0,1.0,1.0,80.0,,1760267825.71
0.5204884348145647,0.5310331049013262,0.3270444455793904,0.5064857807087968,0.1940147108019301,-0.1997364550785528,-0.0523882197360858,0.3209061710876118,0.9177843071016152,0.2034437830013007,0.0568081370858698,0.9183657816258908,0.676362582566141,0.1175535201827996,-0.0588275189646821,0.6783780029250971,0.4589204250848395,-0.1595593349621149,-0.5500000031051201,0.5912208368592549,792.5641025641025,798.6080586080586,798.6080586080586,803.8461538461539,794.981684981685,682.5641025641025,-0.01825,-0.028137,0.992004,2.50473,1.368256,2.018738,1.0,1.0,1.0,1.0,1.0,80.0,,1760267825.71
0.5204884348145647,0.5310331049013262,0.3270444455793904,0.5064857807087968,0.1940147108019301,-0.1997364550785528,-0.0523882197360858,0.3209061710876118,0.9177843071016152,0.2034437830013007,0.0568081370858698,0.9183657816258908,0.676362582566141,0.1175535201827996,-0.0588275189646821,0.6783780029250971,0.4589204250848395,-0.1595593349621149,-0.5500000031051201,0.5912208368592549,780.4761904761905,798.6080586080586,797.8021978021978,807.8754578754579,694.2490842490843,499.6336996336996,-0.01825,-0.028137,0.992004,2.50473,1.368256,2.018738,1.0,1.0,1.0,1.0,1.0,80.0,,1760267825.711
0.5204884348145647,0.5310331049013262,0.3270444455793904,0.5064857807087968,0.1940147108019301,-0.1997364550785528,-0.0523882197360858,0.3209061710876118,0.9177843071016152,0.2034437830013007,0.0568081370858698,0.9183657816258908,0.676362582566141,0.1175535201827996,-0.0588275189646821,0.6783780029250971,0.4589204250848395,-0.1595593349621149,-0.5500000031051201,0.5912208368592549,779.2673992673992,794.5787545787546,795.3846153846154,821.5750915750916,654.3589743589744,511.7216117216117,-0.01825,-0.028137,0.992004,2.50473,1.368256,2.018738,1.0,1.0,1.0,1.0,1.0,80.0,,1760267825.711
0.5204884348145647,0.5310331049013262,0.3270444455793904,0.5064857807087968,0.1940147108019301,-0.1997364550785528,-0.0523882197360858,0.3209061710876118,0.9177843071016152,0.2034437830013007,0.0568081370858698,0.9183657816258908,0.676362582566141,0.1175535201827996,-0.0588275189646821,0.6783780029250971,0.4589204250848395,-0.1595593349621149,-0.5500000031051201,0.5912208368592549,803.040293040293,800.6227106227107,793.3699633699634,820.3663003663004,692.6373626373627,690.6227106227107,-0.01825,-0.028137,0.992004,2.50473,1.368256,2.018738,1.0,1.0,1.0,1.0,1.0,80.0,,1760267825.754
0.5204884348145647,0.5310331049013262,0.3270444455793904,0.5064857807087968,0.1940147108019301,-0.1997364550785528,-0.0523882197360858,0.3209061710876118,0.9177843071016152,0.2034437830013007,0.0568081370858698,0.9183657816258908,0.676362582566141,0.1175535201827996,-0.0588275189646821,0.6783780029250971,0.4589204250848395,-0.1595593349621149,-0.5500000031051201,0.5912208368592549,790.952380952381,798.2051282051282,799.8168498168499,815.934065934066,780.4761904761905,720.8424908424909,-0.01825,-0.028137,0.992004,2.50473,1.368256,2.018738,1.0,1.0,1.0,1.0,1.0,80.0,,1760267825.755
0.5204884348145647,0.5310331049013262,0.3270444455793904,0.5064857807087968,0.1940147108019301,-0.1997364550785528,-0.0523882197360858,0.3209061710876118,0.9177843071016152,0.2034437830013007,0.0568081370858698,0.9183657816258908,0.676362582566141,0.1175535201827996,-0.0588275189646821,0.6783780029250971,0.4589204250848395,-0.1595593349621149,-0.5500000031051201,0.5912208368592549,787.7289377289378,792.1611721611722,799.8168498168499,803.4432234432235,848.5714285714286,649.5238095238095,-0.01825,-0.028137,0.992004,2.50473,1.368256,2.018738,1.0,1.0,1.0,1.0,1.0,80.0,,1760267825.755
0.5204884348145647,0.5310331049013262,0.3270444455793904,0.5064857807087968,0.1940147108019301,-0.1997364550785528,-0.0523882197360858,0.3209061710876118,0.9177843071016152,0.2034437830013007,0.0568081370858698,0.9183657816258908,0.676362582566141,0.1175535201827996,-0.0588275189646821,0.6783780029250971,0.4589204250848395,-0.1595593349621149,-0.5500000031051201,0.5912208368592549,805.4578754578755,802.2344322344322,799.8168498168499,787.3260073260074,849.3772893772895,762.7472527472528,-0.01825,-0.028137,0.992004,2.50473,1.368256,2.018738,1.0,1.0,1.0,1.0,1.0,80.0,,1760267825.756
0.5204884348145647,0.5310331049013262,0.3270444455793904,0.5064857807087968,0.1940147108019301,-0.1997364550785528,-0.0523882197360858,0.3209061710876118,0.9177843071016152,0.2034437830013007,0.0568081370858698,0.9183657816258908,0.676362582566141,0.1175535201827996,-0.0588275189646821,0.6783780029250971,0.4589204250848395,-0.1595593349621149,-0.5500000031051201,0.5912208368592549,796.1904761904763,808.2783882783883,800.6227106227107,786.1172161172161,798.6080586080586,893.6996336996338,-0.01825,-0.028137,0.992004,2.50473,1.368256,2.018738,1.0,1.0,1.0,1.0,1.0,80.0,,1760267825.756
0.5204884348145647,0.5310331049013262,0.3270444455793904,0.5064857807087968,0.1940147108019301,-0.1997364550785528,-0.0523882197360858,0.3209061710876118,0.9177843071016152,0.2034437830013007,0.0568081370858698,0.9183657816258908,0.676362582566141,0.1175535201827996,-0.0588275189646821,0.6783780029250971,0.4589204250848395,-0.1595593349621149,-0.5500000031051201,0.5912208368592549,787.3260073260074,805.8608058608058,797.3992673992674,788.1318681318681,834.4688644688645,1050.03663003663,-0.01825,-0.028137,0.992004,2.50473,1.368256,2.018738,1.0,1.0,1.0,1.0,1.0,80.0,,1760267825.756
0.5204884348145647,0.5310331049013262,0.3270444455793904,0.5064857807087968,0.1940147108019301,-0.1997364550785528,-0.0523882197360858,0.3209061710876118,0.9177843071016152,0.2034437830013007,0.0568081370858698,0.9183657816258908,0.676362582566141,0.1175535201827996,-0.0588275189646821,0.6783780029250971,0.4589204250848395,-0.1595593349621149,-0.5500000031051201,0.5912208368592549,779.6703296703297,800.6227106227107,797.3992673992674,787.3260073260074,902.967032967033,1216.446886446887,-0.01825,-0.028137,0.992004,2.50473,1.368256,2.018738,1.0,1.0,1.0,1.0,1.0,80.0,,1760267825.757
0.5204884348145647,0.5310331049013262,0.3270444455793904,0.5064857807087968,0.1940147108019301,-0.1997364550785528,-0.0523882197360858,0.3209061710876118,0.9177843071016152,0.2034437830013007,0.0568081370858698,0.9183657816258908,0.676362582566141,0.1175535201827996,-0.0588275189646821,0.6783780029250971,0.4589204250848395,-0.1595593349621149,-0.5500000031051201,0.5912208368592549,781.6849816849817,790.5494505494506,792.1611721611722,780.4761904761905,856.2271062271062,842.1245421245421,-0.01825,-0.028137,0.992004,2.50473,1.368256,2.018738,1.0,1.0,1.0,1.0,1.0,80.0,,1760267825.757
0.5204884348145647,0.5310331049013262,0.3270444455793904,0.5064857807087968,0.1940147108019301,-0.1997364550785528,-0.0523882197360858,0.3209061710876118,0.9177843071016152,0.2034437830013007,0.0568081370858698,0.9183657816258908,0.676362582566141,0.1175535201827996,-0.0588275189646821,0.6783780029250971,0.4589204250848395,-0.1595593349621149,-0.5500000031051201,0.5912208368592549,782.893772893773,792.1611721611722,794.1758241758242,800.6227106227107,815.1282051282052,687.3992673992674,-0.01825,-0.028137,0.992004,2.50473,1.368256,2.018738,1.0,1.0,1.0,1.0,1.0,80.0,,1760267825.758
0.5204884348145647,0.5310331049013262,0.3270444455793904,0.5064857807087968,0.1940147108019301,-0.1997364550785528,-0.0523882197360858,0.3209061710876118,0.9177843071016152,0.2034437830013007,0.0568081370858698,0.9183657816258908,0.676362582566141,0.1175535201827996,-0.0588275189646821,0.6783780029250971,0.4589204250848395,-0.1595593349621149,-0.5500000031051201,0.5912208368592549,787.3260073260074,801.8315018315019,796.996336996337,801.4285714285714,845.3479853479854,755.0915750915751,-0.01825,-0.028137,0.992004,2.50473,1.368256,2.018738,1.0,1.0,1.0,1.0,1.0,80.0,,1760267825.758
0.5204884348145647,0.5310331049013262,0.3270444455793904,0.5064857807087968,0.1940147108019301,-0.1997364550785528,-0.0523882197360858,0.3209061710876118,0.9177843071016152,0.2034437830013007,0.0568081370858698,0.9183657816258908,0.676362582566141,0.1175535201827996,-0.0588275189646821,0.6783780029250971,0.4589204250848395,-0.1595593349621149,-0.5500000031051201,0.5912208368592549,797.3992673992674,797.3992673992674,792.5641025641025,788.1318681318681,814.7252747252747,669.2673992673992,-0.01825,-0.028137,0.992004,2.50473,1.368256,2.018738,1.0,1.0,1.0,1.0,1.0,80.0,,1760267825.758
0.5204884348145647,0.5310331049013262,0.3270444455793904,0.5064857807087968,0.1940147108019301,-0.1997364550785528,-0.0523882197360858,0.3209061710876118,0.9177843071016152,0.2034437830013007,0.0568081370858698,0.9183657816258908,0.676362582566141,0.1175535201827996,-0.0588275189646821,0.6783780029250971,0.4589204250848395,-0.1595593349621149,-0.5500000031051201,0.5912208368592549,805.4578754578755,792.5641025641025,794.1758241758242,792.967032967033,767.5824175824176,595.5311355311355,-0.01825,-0.028137,0.992004,2.50473,1.368256,2.018738,1.0,1.0,1.0,1.0,1.0,80.0,,1760267825.758
